"pen_argset_A_centre_back - Storage 111436"
"Wavelength nm."	"R%"
185,00	-320,0652
185,50	-222,2467
186,00	-128,8700
186,50	-38,9912
187,00	56,8554
187,50	153,3522
188,00	121,5723
188,50	123,7543
189,00	130,3048
189,50	126,0795
190,00	118,7732
190,50	117,5449
191,00	118,1151
191,50	112,2634
192,00	108,5152
192,50	105,0991
193,00	104,7070
193,50	99,3931
194,00	96,2134
194,50	97,7989
195,00	95,8751
195,50	97,1758
196,00	97,5741
196,50	95,0644
197,00	94,8295
197,50	94,7412
198,00	94,3567
198,50	94,5513
199,00	93,5811
199,50	93,5141
200,00	91,1648
200,50	90,3936
201,00	89,5400
201,50	90,2428
202,00	88,1733
202,50	87,5126
203,00	87,3338
203,50	85,2770
204,00	84,0055
204,50	83,1033
205,00	82,8470
205,50	81,9458
206,00	79,9947
206,50	80,7616
207,00	79,9580
207,50	79,0038
208,00	78,2568
208,50	77,3190
209,00	77,1345
209,50	75,9763
210,00	76,0378
210,50	75,5227
211,00	73,4266
211,50	72,5845
212,00	71,9566
212,50	71,2365
213,00	70,9721
213,50	70,2447
214,00	69,3732
214,50	68,2314
215,00	67,8277
215,50	67,6085
216,00	67,1386
216,50	66,6126
217,00	65,7315
217,50	65,0573
218,00	64,2617
218,50	63,5340
219,00	62,7854
219,50	62,2195
220,00	61,4900
220,50	61,0613
221,00	60,4319
221,50	60,1212
222,00	59,5670
222,50	59,1568
223,00	58,8926
223,50	58,4883
224,00	57,7458
224,50	57,3917
225,00	56,7479
225,50	56,1012
226,00	55,7231
226,50	55,2270
227,00	54,9675
227,50	54,6477
228,00	54,3284
228,50	53,9505
229,00	53,6091
229,50	53,3806
230,00	53,1851
230,50	52,9815
231,00	52,8299
231,50	52,4152
232,00	52,0831
232,50	51,7914
233,00	51,6612
233,50	51,5135
234,00	51,3671
234,50	51,2241
235,00	51,0404
235,50	50,8597
236,00	50,7502
236,50	50,6744
237,00	50,5844
237,50	50,3746
238,00	50,2062
238,50	50,0739
239,00	49,9537
239,50	49,7899
240,00	49,6070
240,50	49,5442
241,00	49,3767
241,50	49,4176
242,00	49,4444
242,50	49,4421
243,00	49,4904
243,50	49,5550
244,00	49,6674
244,50	49,6993
245,00	49,6290
245,50	49,6715
246,00	49,5563
246,50	49,5358
247,00	49,4867
247,50	49,3215
248,00	49,2922
248,50	49,1362
249,00	49,0771
249,50	49,0722
250,00	49,0808
250,50	49,1296
251,00	49,1189
251,50	49,1753
252,00	49,2531
252,50	49,2377
253,00	49,3535
253,50	49,5644
254,00	49,6483
254,50	49,6953
255,00	49,7567
255,50	49,8455
256,00	49,9248
256,50	49,9786
257,00	50,0315
257,50	50,1026
258,00	50,0871
258,50	50,1567
259,00	50,2479
259,50	50,2229
260,00	50,3387
260,50	50,3228
261,00	50,4253
261,50	50,5431
262,00	50,5963
262,50	50,5735
263,00	50,6866
263,50	50,6925
264,00	50,7059
264,50	50,7223
265,00	50,7673
265,50	50,7587
266,00	50,7075
266,50	50,6205
267,00	50,6071
267,50	50,4788
268,00	50,4431
268,50	50,4354
269,00	50,3409
269,50	50,3333
270,00	50,2620
270,50	50,2175
271,00	50,1419
271,50	50,1866
272,00	50,1026
272,50	50,0846
273,00	50,0763
273,50	50,0870
274,00	50,0246
274,50	50,0349
275,00	50,0509
275,50	50,1345
276,00	50,0388
276,50	50,1122
277,00	50,0329
277,50	50,0910
278,00	50,0393
278,50	49,9226
279,00	49,8126
279,50	49,7038
280,00	49,6368
280,50	49,6636
281,00	49,5756
281,50	49,5441
282,00	49,4604
282,50	49,4142
283,00	49,4886
283,50	49,5157
284,00	49,6275
284,50	49,5636
285,00	49,5699
285,50	49,5572
286,00	49,5720
286,50	49,4553
287,00	49,4215
287,50	49,3132
288,00	49,3066
288,50	49,2308
289,00	49,2088
289,50	49,1318
290,00	49,1142
290,50	49,0593
291,00	49,0626
291,50	49,0703
292,00	49,1424
292,50	49,0870
293,00	49,0214
293,50	49,0513
294,00	49,0014
294,50	48,9906
295,00	48,9742
295,50	48,9749
296,00	48,8965
296,50	48,8488
297,00	48,8202
297,50	48,7560
298,00	48,7070
298,50	48,6829
299,00	48,6671
299,50	48,6615
300,00	48,7636
300,50	48,7591
301,00	48,6747
301,50	48,6817
302,00	48,6477
302,50	48,6285
303,00	48,6685
303,50	48,6009
304,00	48,5679
304,50	48,4703
305,00	48,5009
305,50	48,5556
306,00	48,4699
306,50	48,5228
307,00	48,3643
307,50	48,3620
308,00	48,4029
308,50	48,6692
309,00	48,8081
309,50	48,8925
310,00	49,0125
310,50	49,2507
311,00	49,3904
311,50	49,6014
312,00	49,6381
312,50	49,7362
313,00	49,6578
313,50	49,6555
314,00	49,7430
314,50	49,7450
315,00	49,6938
315,50	49,7236
316,00	49,8814
316,50	49,9676
317,00	50,0467
317,50	50,0495
318,00	49,9767
318,50	49,8830
319,00	49,8674
319,50	49,9187
320,00	49,8468
320,50	49,7811
321,00	49,6970
321,50	49,6933
322,00	49,7633
322,50	49,7564
323,00	49,8136
323,50	49,7917
324,00	49,7069
324,50	49,7233
325,00	49,6913
325,50	49,7291
326,00	49,6314
326,50	49,4767
327,00	49,4738
327,50	49,3864
328,00	49,3700
328,50	49,4085
329,00	49,4004
329,50	49,4501
330,00	49,4171
330,50	49,3630
331,00	49,3959
331,50	49,3714
332,00	49,4011
332,50	49,4185
333,00	49,3871
333,50	49,2987
334,00	49,2652
334,50	49,1961
335,00	49,1887
335,50	49,1586
336,00	49,2102
336,50	49,1018
337,00	49,0070
337,50	48,9674
338,00	49,0523
338,50	49,0032
339,00	49,0859
339,50	49,0675
340,00	49,0373
340,50	48,9763
341,00	48,9956
341,50	49,0523
342,00	49,0583
342,50	48,9482
343,00	48,8762
343,50	48,8178
344,00	48,8539
344,50	48,8654
345,00	48,8761
345,50	48,8937
346,00	48,8352
346,50	48,7657
347,00	48,7486
347,50	48,7475
348,00	48,6943
348,50	48,6352
349,00	48,5348
349,50	48,4446
350,00	48,4135
350,50	48,4155
351,00	48,3547
351,50	48,3769
352,00	48,3481
352,50	48,3399
353,00	48,3426
353,50	48,3932
354,00	48,4150
354,50	48,4118
355,00	48,4036
355,50	48,3605
356,00	48,3139
356,50	48,2988
357,00	48,2670
357,50	48,2795
358,00	48,1806
358,50	48,2684
359,00	48,3699
359,50	48,4901
360,00	48,6960
360,50	48,8430
361,00	49,0402
361,50	49,2168
362,00	49,3183
362,50	49,4804
363,00	49,5010
363,50	49,4360
364,00	49,3854
364,50	49,4227
365,00	49,4258
365,50	49,3639
366,00	49,2848
366,50	49,2515
367,00	49,2878
367,50	49,2670
368,00	49,3031
368,50	49,3280
369,00	49,2354
369,50	49,2604
370,00	49,2048
370,50	49,2760
371,00	49,2535
371,50	49,1818
372,00	49,1507
372,50	49,1269
373,00	49,0589
373,50	49,0884
374,00	49,0168
374,50	48,9928
375,00	48,8689
375,50	48,8165
376,00	48,7561
376,50	48,7095
377,00	48,6210
377,50	48,5010
378,00	48,3352
378,50	48,1694
379,00	48,0340
379,50	47,8868
380,00	47,7251
380,50	47,5643
381,00	47,4059
381,50	47,2495
382,00	47,1356
382,50	47,0006
383,00	46,9002
383,50	46,7314
384,00	46,5998
384,50	46,4866
385,00	46,3943
385,50	46,2942
386,00	46,2173
386,50	46,1211
387,00	46,0750
387,50	45,9867
388,00	45,9533
388,50	45,9590
389,00	45,9303
389,50	45,9051
390,00	45,8492
390,50	45,7859
391,00	45,7861
391,50	45,7603
392,00	45,7378
392,50	45,7122
393,00	45,6451
393,50	45,5988
394,00	45,5687
394,50	45,5845
395,00	45,5579
395,50	45,5048
396,00	45,4346
396,50	45,4161
397,00	45,3935
397,50	45,3976
398,00	45,4095
398,50	45,3591
399,00	45,3245
399,50	45,3481
400,00	45,3484
400,50	45,3548
401,00	45,3224
401,50	45,3362
402,00	45,3256
402,50	45,2922
403,00	45,2893
403,50	45,2767
404,00	45,2329
404,50	45,2118
405,00	45,2053
405,50	45,1938
406,00	45,1779
406,50	45,1600
407,00	45,1913
407,50	45,2260
408,00	45,1997
408,50	45,2161
409,00	45,1845
409,50	45,1661
410,00	45,1728
410,50	45,1340
411,00	45,1217
411,50	45,0650
412,00	44,9994
412,50	44,9779
413,00	44,9493
413,50	44,9405
414,00	44,9186
414,50	44,8940
415,00	44,8831
415,50	44,8650
416,00	44,8398
416,50	44,8423
417,00	44,8328
417,50	44,8203
418,00	44,8048
418,50	44,6894
419,00	44,6019
419,50	44,5043
420,00	44,4093
420,50	44,3352
421,00	44,2357
421,50	44,1523
422,00	44,0274
422,50	43,9499
423,00	43,9695
423,50	43,9261
424,00	43,9197
424,50	43,8988
425,00	43,8914
425,50	43,8737
426,00	43,8393
426,50	43,8511
427,00	43,8481
427,50	43,8487
428,00	43,8485
428,50	43,8361
429,00	43,8277
429,50	43,8111
430,00	43,8168
430,50	43,8203
431,00	43,8316
431,50	43,8209
432,00	43,8240
432,50	43,8403
433,00	43,8381
433,50	43,8581
434,00	43,8551
434,50	43,8366
435,00	43,8624
435,50	43,8630
436,00	43,8663
436,50	43,8541
437,00	43,8513
437,50	43,8408
438,00	43,8176
438,50	43,8155
439,00	43,8089
439,50	43,7871
440,00	43,7446
440,50	43,7396
441,00	43,7234
441,50	43,7233
442,00	43,7211
442,50	43,6986
443,00	43,7143
443,50	43,7110
444,00	43,6872
444,50	43,6936
445,00	43,6906
445,50	43,7108
446,00	43,6839
446,50	43,7035
447,00	43,7386
447,50	43,7347
448,00	43,7543
448,50	43,7522
449,00	43,7671
449,50	43,7964
450,00	43,7707
450,50	43,7923
451,00	43,7643
451,50	43,7335
452,00	43,7246
452,50	43,7238
453,00	43,7348
453,50	43,7175
454,00	43,6765
454,50	43,6782
455,00	43,6598
455,50	43,6741
456,00	43,6871
456,50	43,6748
457,00	43,6430
457,50	43,6226
458,00	43,6247
458,50	43,6292
459,00	43,6184
459,50	43,6247
460,00	43,6153
460,50	43,5972
461,00	43,5821
461,50	43,5936
462,00	43,5789
462,50	43,5553
463,00	43,5178
463,50	43,4797
464,00	43,4536
464,50	43,4293
465,00	43,4266
465,50	43,4201
466,00	43,3714
466,50	43,3703
467,00	43,3495
467,50	43,3548
468,00	43,3567
468,50	43,3424
469,00	43,3395
469,50	43,3216
470,00	43,3157
470,50	43,3194
471,00	43,3079
471,50	43,3054
472,00	43,2893
472,50	43,2857
473,00	43,2762
473,50	43,2509
474,00	43,2347
474,50	43,2212
475,00	43,2211
475,50	43,2107
476,00	43,2081
476,50	43,2066
477,00	43,2138
477,50	43,2195
478,00	43,2512
478,50	43,2582
479,00	43,2595
479,50	43,2601
480,00	43,2833
480,50	43,2814
481,00	43,2764
481,50	43,2565
482,00	43,2349
482,50	43,2114
483,00	43,2118
483,50	43,1870
484,00	43,1860
484,50	43,1643
485,00	43,1672
485,50	43,1665
486,00	43,1804
486,50	43,1951
487,00	43,1908
487,50	43,1776
488,00	43,1928
488,50	43,1989
489,00	43,1963
489,50	43,2018
490,00	43,2027
490,50	43,1867
491,00	43,1757
491,50	43,1894
492,00	43,1903
492,50	43,1889
493,00	43,1644
493,50	43,1452
494,00	43,1341
494,50	43,1298
495,00	43,1523
495,50	43,1531
496,00	43,1435
496,50	43,1535
497,00	43,1670
497,50	43,1801
498,00	43,1900
498,50	43,1740
499,00	43,1873
499,50	43,1710
500,00	43,1717
500,50	43,1653
501,00	43,1583
501,50	43,1538
502,00	43,1484
502,50	43,1564
503,00	43,1758
503,50	43,1514
504,00	43,1653
504,50	43,1756
505,00	43,1681
505,50	43,1506
506,00	43,1456
506,50	43,1548
507,00	43,1441
507,50	43,1335
508,00	43,1311
508,50	43,1079
509,00	43,0941
509,50	43,0841
510,00	43,0889
510,50	43,0488
511,00	43,0328
511,50	43,0443
512,00	43,0425
512,50	43,0474
513,00	43,0252
513,50	43,0216
514,00	43,0314
514,50	43,0109
515,00	43,0346
515,50	43,0402
516,00	43,0199
516,50	43,0090
517,00	43,0075
517,50	43,0144
518,00	43,0234
518,50	43,0184
519,00	43,0470
519,50	43,0341
520,00	43,0467
520,50	43,0533
521,00	43,0500
521,50	43,0482
522,00	43,0462
522,50	43,0298
523,00	43,0229
523,50	43,0025
524,00	43,0213
524,50	42,9922
525,00	42,9973
525,50	42,9790
526,00	42,9462
526,50	42,9437
527,00	42,9353
527,50	42,9208
528,00	42,9205
528,50	42,8799
529,00	42,8508
529,50	42,7891
530,00	42,7459
530,50	42,7365
531,00	42,7025
531,50	42,6854
532,00	42,6614
532,50	42,6094
533,00	42,5893
533,50	42,5670
534,00	42,5654
534,50	42,5975
535,00	42,5924
535,50	42,5824
536,00	42,5706
536,50	42,5563
537,00	42,5663
537,50	42,5796
538,00	42,5968
538,50	42,6067
539,00	42,5972
539,50	42,5928
540,00	42,6076
540,50	42,5805
541,00	42,5919
541,50	42,5936
542,00	42,5862
542,50	42,5660
543,00	42,5734
543,50	42,5900
544,00	42,5915
544,50	42,5921
545,00	42,6272
545,50	42,6145
546,00	42,6046
546,50	42,5920
547,00	42,6053
547,50	42,5775
548,00	42,5592
548,50	42,5630
549,00	42,5337
549,50	42,5074
550,00	42,5174
550,50	42,5128
551,00	42,5048
551,50	42,4678
552,00	42,4965
552,50	42,4975
553,00	42,4723
553,50	42,4961
554,00	42,4892
554,50	42,4728
555,00	42,4797
555,50	42,4870
556,00	42,5050
556,50	42,4681
557,00	42,4456
557,50	42,4362
558,00	42,4115
558,50	42,4089
559,00	42,4216
559,50	42,4015
560,00	42,3813
560,50	42,3655
561,00	42,3770
561,50	42,3699
562,00	42,3740
562,50	42,3799
563,00	42,3661
563,50	42,3375
564,00	42,3447
564,50	42,3227
565,00	42,3286
565,50	42,3097
566,00	42,2889
566,50	42,2550
567,00	42,2333
567,50	42,2129
568,00	42,2283
568,50	42,2013
569,00	42,2139
569,50	42,2030
570,00	42,2012
570,50	42,2124
571,00	42,2250
571,50	42,2150
572,00	42,2332
572,50	42,1931
573,00	42,1963
573,50	42,1986
574,00	42,1921
574,50	42,1855
575,00	42,1758
575,50	42,1769
576,00	42,2002
576,50	42,1973
577,00	42,2172
577,50	42,2078
578,00	42,1951
578,50	42,1811
579,00	42,1841
579,50	42,1785
580,00	42,1675
580,50	42,1552
581,00	42,1461
581,50	42,1524
582,00	42,1636
582,50	42,1592
583,00	42,1689
583,50	42,1739
584,00	42,2006
584,50	42,2194
585,00	42,2314
585,50	42,2323
586,00	42,2345
586,50	42,2440
587,00	42,2791
587,50	42,3023
588,00	42,2986
588,50	42,3011
589,00	42,3069
589,50	42,2973
590,00	42,3183
590,50	42,3379
591,00	42,3404
591,50	42,3241
592,00	42,3082
592,50	42,3068
593,00	42,2939
593,50	42,2832
594,00	42,2715
594,50	42,2648
595,00	42,2513
595,50	42,2484
596,00	42,2429
596,50	42,2641
597,00	42,2695
597,50	42,2645
598,00	42,2697
598,50	42,2803
599,00	42,2737
599,50	42,2650
600,00	42,2616
