"pen_argset_A_TopSurface_centre - Storage 114240"
"Wavelength nm."	"R%"
185,00	344,9082
185,50	302,4150
186,00	260,5895
186,50	216,1361
187,00	182,1546
187,50	140,2928
188,00	136,1409
188,50	126,9210
189,00	124,1012
189,50	111,5331
190,00	113,0085
190,50	115,0038
191,00	117,2116
191,50	109,8578
192,00	109,6356
192,50	107,1281
193,00	103,5504
193,50	98,6727
194,00	97,0447
194,50	96,7000
195,00	94,5462
195,50	95,8362
196,00	94,2743
196,50	94,0792
197,00	92,6819
197,50	94,4107
198,00	94,9036
198,50	95,2676
199,00	94,4055
199,50	93,3324
200,00	91,5295
200,50	91,7925
201,00	90,8845
201,50	92,2076
202,00	90,3154
202,50	89,1951
203,00	88,1846
203,50	86,5485
204,00	86,2606
204,50	85,4755
205,00	84,8205
205,50	84,1515
206,00	82,1073
206,50	81,9803
207,00	81,3614
207,50	80,7014
208,00	80,2163
208,50	79,1308
209,00	78,3169
209,50	77,1631
210,00	76,6855
210,50	76,0168
211,00	74,6146
211,50	73,4301
212,00	72,7222
212,50	71,8129
213,00	70,8980
213,50	70,3113
214,00	69,4512
214,50	68,2189
215,00	67,6725
215,50	67,1573
216,00	66,7073
216,50	66,3026
217,00	65,7043
217,50	65,2718
218,00	64,2497
218,50	63,5908
219,00	62,8349
219,50	62,0824
220,00	61,3442
220,50	60,8346
221,00	59,9096
221,50	59,5624
222,00	59,0812
222,50	58,6108
223,00	58,3441
223,50	58,1387
224,00	57,5636
224,50	57,2140
225,00	56,6615
225,50	56,2032
226,00	55,7495
226,50	55,3632
227,00	55,0936
227,50	54,6343
228,00	54,3156
228,50	54,0636
229,00	53,6056
229,50	53,2652
230,00	53,0861
230,50	52,8572
231,00	52,5840
231,50	52,3032
232,00	51,8994
232,50	51,7696
233,00	51,5668
233,50	51,3484
234,00	51,2615
234,50	51,0603
235,00	50,9535
235,50	50,7755
236,00	50,5782
236,50	50,6588
237,00	50,5130
237,50	50,3953
238,00	50,3422
238,50	50,1310
239,00	50,0711
239,50	49,8922
240,00	49,7449
240,50	49,6809
241,00	49,4822
241,50	49,3791
242,00	49,2593
242,50	49,2537
243,00	49,2224
243,50	49,2376
244,00	49,2329
244,50	49,1570
245,00	49,0946
245,50	48,9566
246,00	48,9742
246,50	49,0012
247,00	49,0435
247,50	48,9970
248,00	48,9704
248,50	48,8684
249,00	48,9103
249,50	49,0197
250,00	49,2033
250,50	49,1930
251,00	49,2664
251,50	49,2780
252,00	49,3843
252,50	49,4013
253,00	49,6049
253,50	49,7866
254,00	49,8702
254,50	49,9241
255,00	49,9909
255,50	49,9823
256,00	50,0334
256,50	50,0267
257,00	50,0891
257,50	50,1191
258,00	50,1596
258,50	50,1824
259,00	50,2423
259,50	50,3002
260,00	50,4025
260,50	50,4294
261,00	50,5177
261,50	50,6099
262,00	50,6589
262,50	50,5778
263,00	50,6915
263,50	50,6749
264,00	50,6480
264,50	50,6663
265,00	50,6838
265,50	50,7095
266,00	50,7309
266,50	50,5914
267,00	50,6372
267,50	50,5465
268,00	50,5132
268,50	50,5845
269,00	50,5045
269,50	50,5126
270,00	50,5176
270,50	50,4300
271,00	50,4330
271,50	50,4896
272,00	50,4701
272,50	50,4027
273,00	50,3110
273,50	50,3330
274,00	50,2930
274,50	50,2154
275,00	50,1857
275,50	50,1508
276,00	50,0751
276,50	50,0463
277,00	50,0979
277,50	50,0849
278,00	50,0536
278,50	50,0020
279,00	50,0461
279,50	49,9753
280,00	49,9834
280,50	49,9492
281,00	49,8814
281,50	49,8495
282,00	49,8696
282,50	49,8380
283,00	49,7470
283,50	49,5856
284,00	49,6239
284,50	49,5770
285,00	49,5374
285,50	49,6138
286,00	49,5455
286,50	49,4196
287,00	49,3252
287,50	49,3016
288,00	49,3417
288,50	49,2897
289,00	49,3614
289,50	49,3260
290,00	49,2266
290,50	49,1802
291,00	49,1650
291,50	49,1624
292,00	49,2155
292,50	49,1036
293,00	49,0346
293,50	48,9446
294,00	48,9064
294,50	48,8319
295,00	48,8436
295,50	48,8326
296,00	48,7773
296,50	48,6925
297,00	48,6492
297,50	48,6959
298,00	48,6260
298,50	48,5828
299,00	48,6633
299,50	48,5917
300,00	48,6463
300,50	48,6628
301,00	48,6651
301,50	48,8295
302,00	48,7863
302,50	48,9035
303,00	49,0161
303,50	48,9463
304,00	48,9491
304,50	48,8505
305,00	48,8974
305,50	48,8396
306,00	48,6575
306,50	48,7680
307,00	48,6572
307,50	48,5630
308,00	48,5674
308,50	48,7953
309,00	48,9827
309,50	49,0644
310,00	49,1999
310,50	49,3725
311,00	49,4071
311,50	49,5429
312,00	49,6146
312,50	49,7765
313,00	49,6979
313,50	49,6882
314,00	49,7564
314,50	49,7504
315,00	49,7214
315,50	49,6655
316,00	49,6532
316,50	49,6886
317,00	49,6646
317,50	49,7214
318,00	49,6440
318,50	49,6573
319,00	49,6806
319,50	49,7502
320,00	49,7241
320,50	49,6702
321,00	49,6161
321,50	49,5143
322,00	49,4923
322,50	49,5114
323,00	49,4384
323,50	49,5223
324,00	49,4621
324,50	49,5640
325,00	49,6084
325,50	49,6048
326,00	49,6572
326,50	49,6025
327,00	49,6380
327,50	49,5976
328,00	49,4721
328,50	49,4659
329,00	49,3492
329,50	49,3623
330,00	49,4056
330,50	49,3888
331,00	49,4038
331,50	49,3219
332,00	49,2923
332,50	49,3367
333,00	49,3863
333,50	49,3589
334,00	49,3169
334,50	49,3585
335,00	49,3426
335,50	49,2955
336,00	49,2649
336,50	49,2321
337,00	49,1591
337,50	49,0457
338,00	49,0710
338,50	49,0298
339,00	48,9399
339,50	48,8610
340,00	48,8685
340,50	48,9400
341,00	48,9339
341,50	48,9467
342,00	48,9789
342,50	48,9595
343,00	48,9927
343,50	49,0304
344,00	48,9954
344,50	48,9203
345,00	48,8334
345,50	48,8525
346,00	48,8067
346,50	48,7470
347,00	48,7243
347,50	48,6588
348,00	48,5688
348,50	48,5510
349,00	48,5081
349,50	48,4706
350,00	48,4022
350,50	48,3481
351,00	48,3295
351,50	48,2255
352,00	48,1809
352,50	48,1523
353,00	48,1655
353,50	48,1698
354,00	48,1406
354,50	48,1239
355,00	48,1421
355,50	48,0831
356,00	48,1066
356,50	48,0557
357,00	47,9946
357,50	47,9773
358,00	47,8926
358,50	48,0718
359,00	48,1703
359,50	48,3119
360,00	48,4897
360,50	48,6718
361,00	48,8095
361,50	49,0424
362,00	49,2418
362,50	49,4396
363,00	49,4296
363,50	49,4658
364,00	49,4251
364,50	49,4545
365,00	49,4696
365,50	49,4911
366,00	49,4325
366,50	49,3420
367,00	49,3830
367,50	49,3815
368,00	49,3696
368,50	49,3650
369,00	49,2710
369,50	49,2655
370,00	49,2042
370,50	49,2107
371,00	49,1928
371,50	49,1373
372,00	49,1043
372,50	49,0863
373,00	49,0338
373,50	49,0555
374,00	48,9376
374,50	48,9293
375,00	48,8227
375,50	48,7815
376,00	48,7335
376,50	48,6918
377,00	48,6141
377,50	48,4926
378,00	48,3263
378,50	48,2080
379,00	48,0814
379,50	47,9463
380,00	47,7681
380,50	47,5846
381,00	47,3380
381,50	47,1428
382,00	47,0259
382,50	46,9045
383,00	46,7524
383,50	46,5957
384,00	46,4623
384,50	46,3654
385,00	46,2437
385,50	46,1780
386,00	46,0982
386,50	46,0266
387,00	45,9493
387,50	45,9075
388,00	45,8572
388,50	45,8564
389,00	45,8526
389,50	45,8176
390,00	45,7849
390,50	45,7449
391,00	45,7171
391,50	45,7142
392,00	45,6754
392,50	45,6369
393,00	45,5647
393,50	45,4640
394,00	45,4707
394,50	45,4383
395,00	45,4265
395,50	45,4122
396,00	45,3658
396,50	45,4006
397,00	45,4085
397,50	45,4339
398,00	45,4815
398,50	45,4541
399,00	45,4915
399,50	45,4772
400,00	45,4700
400,50	45,4888
401,00	45,4322
401,50	45,4246
402,00	45,4033
402,50	45,3805
403,00	45,3402
403,50	45,3246
404,00	45,3095
404,50	45,2857
405,00	45,2567
405,50	45,2606
406,00	45,2231
406,50	45,1871
407,00	45,1738
407,50	45,2087
408,00	45,1662
408,50	45,1721
409,00	45,1395
409,50	45,1401
410,00	45,1465
410,50	45,1472
411,00	45,1100
411,50	45,0941
412,00	45,0509
412,50	45,0312
413,00	45,0039
413,50	45,0131
414,00	44,9856
414,50	44,9458
415,00	44,9498
415,50	44,9699
416,00	44,9197
416,50	44,9027
417,00	44,8851
417,50	44,8727
418,00	44,8543
418,50	44,7571
419,00	44,6675
419,50	44,5515
420,00	44,4482
420,50	44,3904
421,00	44,2960
421,50	44,2085
422,00	44,1027
422,50	44,0019
423,00	43,9902
423,50	43,9554
424,00	43,9501
424,50	43,9215
425,00	43,8909
425,50	43,8858
426,00	43,8595
426,50	43,8499
427,00	43,8368
427,50	43,8274
428,00	43,8264
428,50	43,8387
429,00	43,8355
429,50	43,8658
430,00	43,8525
430,50	43,8580
431,00	43,8658
431,50	43,8701
432,00	43,9043
432,50	43,9291
433,00	43,9102
433,50	43,9192
434,00	43,8990
434,50	43,8997
435,00	43,8916
435,50	43,9043
436,00	43,9024
436,50	43,8706
437,00	43,8468
437,50	43,8243
438,00	43,8200
438,50	43,8014
439,00	43,7956
439,50	43,8038
440,00	43,7598
440,50	43,7737
441,00	43,7716
441,50	43,7563
442,00	43,7580
442,50	43,7581
443,00	43,7442
443,50	43,7147
444,00	43,6985
444,50	43,7101
445,00	43,6884
445,50	43,6883
446,00	43,6901
446,50	43,7024
447,00	43,7249
447,50	43,7663
448,00	43,7915
448,50	43,7957
449,00	43,7815
449,50	43,7959
450,00	43,8005
450,50	43,8103
451,00	43,8102
451,50	43,7914
452,00	43,7735
452,50	43,7658
453,00	43,7648
453,50	43,7731
454,00	43,7615
454,50	43,7460
455,00	43,7287
455,50	43,7005
456,00	43,6756
456,50	43,6517
457,00	43,6294
457,50	43,6287
458,00	43,6301
458,50	43,6393
459,00	43,6301
459,50	43,6178
460,00	43,6197
460,50	43,6227
461,00	43,6324
461,50	43,6284
462,00	43,6023
462,50	43,5678
463,00	43,5290
463,50	43,4999
464,00	43,4977
464,50	43,4893
465,00	43,4949
465,50	43,4792
466,00	43,4746
466,50	43,4616
467,00	43,4486
467,50	43,4293
468,00	43,4304
468,50	43,4111
469,00	43,4062
469,50	43,3807
470,00	43,3775
470,50	43,3697
471,00	43,3600
471,50	43,3711
472,00	43,3689
472,50	43,3673
473,00	43,3483
473,50	43,3157
474,00	43,3003
474,50	43,2679
475,00	43,2660
475,50	43,2801
476,00	43,2693
476,50	43,2494
477,00	43,2405
477,50	43,2680
478,00	43,2733
478,50	43,2651
479,00	43,2599
479,50	43,2502
480,00	43,2361
480,50	43,2271
481,00	43,2349
481,50	43,2279
482,00	43,1979
482,50	43,2071
483,00	43,2117
483,50	43,2027
484,00	43,2221
484,50	43,2171
485,00	43,2153
485,50	43,2188
486,00	43,2250
486,50	43,2367
487,00	43,2289
487,50	43,2121
488,00	43,2264
488,50	43,2174
489,00	43,2034
489,50	43,2057
490,00	43,1994
490,50	43,2015
491,00	43,1832
491,50	43,1851
492,00	43,1996
492,50	43,1933
493,00	43,1604
493,50	43,1524
494,00	43,1614
494,50	43,1498
495,00	43,1395
495,50	43,1516
496,00	43,1421
496,50	43,1451
497,00	43,1741
497,50	43,1890
498,00	43,2168
498,50	43,1963
499,00	43,2210
499,50	43,2148
500,00	43,2188
500,50	43,2140
501,00	43,1999
501,50	43,1674
502,00	43,1710
502,50	43,1766
503,00	43,1987
503,50	43,1730
504,00	43,1948
504,50	43,1831
505,00	43,1947
505,50	43,1855
506,00	43,1828
506,50	43,1852
507,00	43,1718
507,50	43,1461
508,00	43,1519
508,50	43,1194
509,00	43,1190
509,50	43,0899
510,00	43,0899
510,50	43,0709
511,00	43,0349
511,50	43,0285
512,00	43,0289
512,50	43,0198
513,00	43,0121
513,50	43,0105
514,00	43,0168
514,50	43,0172
515,00	43,0500
515,50	43,0650
516,00	43,0466
516,50	43,0405
517,00	43,0311
517,50	43,0226
518,00	43,0237
518,50	43,0251
519,00	43,0183
519,50	42,9990
520,00	43,0169
520,50	43,0017
521,00	43,0001
521,50	43,0091
522,00	43,0116
522,50	43,0237
523,00	43,0077
523,50	42,9891
524,00	42,9953
524,50	42,9870
525,00	42,9926
525,50	42,9768
526,00	42,9495
526,50	42,9417
527,00	42,8889
527,50	42,8845
528,00	42,8912
528,50	42,8426
529,00	42,7953
529,50	42,7685
530,00	42,7281
530,50	42,7053
531,00	42,6685
531,50	42,6629
532,00	42,6194
532,50	42,5839
533,00	42,5720
533,50	42,5670
534,00	42,5596
534,50	42,5784
535,00	42,5784
535,50	42,5494
536,00	42,5479
536,50	42,5745
537,00	42,5744
537,50	42,5806
538,00	42,5794
538,50	42,5734
539,00	42,5597
539,50	42,5661
540,00	42,5848
540,50	42,5521
541,00	42,5335
541,50	42,5297
542,00	42,5161
542,50	42,5065
543,00	42,5115
543,50	42,5184
544,00	42,5247
544,50	42,5508
545,00	42,5625
545,50	42,5600
546,00	42,5759
546,50	42,5655
547,00	42,5690
547,50	42,5632
548,00	42,5570
548,50	42,5532
549,00	42,5319
549,50	42,5366
550,00	42,5355
550,50	42,5021
551,00	42,5174
551,50	42,4890
552,00	42,4908
552,50	42,4835
553,00	42,4536
553,50	42,4665
554,00	42,4460
554,50	42,4210
555,00	42,4299
555,50	42,4173
556,00	42,4300
556,50	42,4026
557,00	42,3647
557,50	42,3433
558,00	42,3110
558,50	42,3022
559,00	42,3237
559,50	42,3175
560,00	42,3159
560,50	42,3032
561,00	42,3180
561,50	42,3318
562,00	42,3485
562,50	42,3582
563,00	42,3517
563,50	42,3180
564,00	42,2921
564,50	42,2612
565,00	42,2580
565,50	42,2247
566,00	42,2203
566,50	42,2026
567,00	42,1952
567,50	42,1983
568,00	42,2040
568,50	42,1917
569,00	42,2090
569,50	42,1979
570,00	42,2260
570,50	42,2302
571,00	42,2381
571,50	42,2290
572,00	42,2267
572,50	42,2039
573,00	42,2095
573,50	42,2112
574,00	42,2143
574,50	42,1955
575,00	42,1862
575,50	42,1715
576,00	42,1801
576,50	42,1889
577,00	42,2125
577,50	42,2248
578,00	42,2142
578,50	42,2079
579,00	42,2013
579,50	42,1936
580,00	42,1909
580,50	42,1788
581,00	42,1721
581,50	42,1806
582,00	42,1920
582,50	42,2007
583,00	42,1980
583,50	42,2145
584,00	42,2439
584,50	42,2591
585,00	42,2707
585,50	42,2699
586,00	42,2775
586,50	42,2744
587,00	42,2758
587,50	42,2977
588,00	42,2817
588,50	42,2663
589,00	42,2747
589,50	42,2674
590,00	42,2667
590,50	42,2834
591,00	42,2838
591,50	42,3129
592,00	42,3155
592,50	42,3342
593,00	42,3529
593,50	42,3471
594,00	42,3456
594,50	42,3587
595,00	42,3237
595,50	42,3247
596,00	42,2816
596,50	42,2818
597,00	42,2870
597,50	42,2865
598,00	42,2805
598,50	42,2771
599,00	42,2639
599,50	42,2685
600,00	42,2624
