"pen_argset_otherB_front_spot1 - Storage 131800"
"Wavelength nm."	"R%"
185,00	103,8468
185,50	103,3975
186,00	105,6795
186,50	105,4025
187,00	110,4883
187,50	112,3642
188,00	102,9355
188,50	110,5330
189,00	115,2797
189,50	115,3606
190,00	117,6801
190,50	117,3907
191,00	119,6276
191,50	115,1902
192,00	113,7761
192,50	111,1748
193,00	107,0967
193,50	101,9024
194,00	97,5460
194,50	97,2416
195,00	95,3547
195,50	94,9370
196,00	94,4957
196,50	94,7624
197,00	95,6661
197,50	94,0436
198,00	93,9890
198,50	95,1565
199,00	94,1846
199,50	92,7135
200,00	90,5923
200,50	89,6757
201,00	88,3977
201,50	88,0476
202,00	87,9554
202,50	87,1423
203,00	85,8619
203,50	84,2840
204,00	84,0612
204,50	82,9978
205,00	82,7109
205,50	81,6623
206,00	80,1726
206,50	79,9192
207,00	78,7340
207,50	78,2486
208,00	77,0890
208,50	76,5392
209,00	76,1930
209,50	75,5195
210,00	75,2090
210,50	74,7026
211,00	72,9745
211,50	72,2504
212,00	71,4296
212,50	71,0723
213,00	70,4051
213,50	69,7379
214,00	68,7318
214,50	67,9434
215,00	67,3088
215,50	67,1175
216,00	66,5138
216,50	65,7819
217,00	64,9198
217,50	64,4353
218,00	63,8539
218,50	63,1021
219,00	62,4064
219,50	61,9067
220,00	61,3515
220,50	60,9118
221,00	60,3150
221,50	60,0371
222,00	59,6363
222,50	58,9669
223,00	58,7844
223,50	58,2941
224,00	57,5937
224,50	57,0900
225,00	56,5683
225,50	55,9808
226,00	55,5609
226,50	55,0971
227,00	54,8635
227,50	54,2683
228,00	53,9720
228,50	53,7773
229,00	53,6129
229,50	53,2991
230,00	53,1940
230,50	52,9341
231,00	52,7702
231,50	52,4314
232,00	52,1346
232,50	51,7994
233,00	51,5146
233,50	51,1243
234,00	50,9148
234,50	50,6636
235,00	50,4811
235,50	50,2946
236,00	50,1860
236,50	50,0938
237,00	50,0455
237,50	49,8972
238,00	49,8398
238,50	49,7295
239,00	49,5522
239,50	49,3600
240,00	49,2011
240,50	49,1632
241,00	49,0698
241,50	49,0016
242,00	48,9513
242,50	48,9621
243,00	48,9697
243,50	48,9645
244,00	49,0046
244,50	49,0545
245,00	48,9502
245,50	48,9905
246,00	48,9442
246,50	48,9491
247,00	48,9630
247,50	48,8694
248,00	48,9832
248,50	49,0296
249,00	48,9406
249,50	48,9632
250,00	48,9938
250,50	48,9779
251,00	49,0822
251,50	49,1158
252,00	49,2858
252,50	49,1760
253,00	49,1946
253,50	49,4347
254,00	49,5364
254,50	49,5616
255,00	49,6809
255,50	49,7209
256,00	49,7792
256,50	49,7687
257,00	49,8787
257,50	49,8946
258,00	49,8509
258,50	49,8747
259,00	50,0056
259,50	50,0581
260,00	50,1221
260,50	50,1349
261,00	50,1403
261,50	50,1927
262,00	50,3713
262,50	50,3445
263,00	50,4276
263,50	50,4363
264,00	50,4234
264,50	50,4527
265,00	50,4275
265,50	50,4322
266,00	50,4730
266,50	50,3074
267,00	50,4111
267,50	50,3828
268,00	50,3140
268,50	50,3016
269,00	50,2401
269,50	50,2681
270,00	50,2808
270,50	50,2240
271,00	50,2790
271,50	50,1562
272,00	50,1370
272,50	50,0845
273,00	50,0982
273,50	50,0594
274,00	50,0567
274,50	49,9959
275,00	50,0294
275,50	49,9520
276,00	49,8650
276,50	49,9017
277,00	49,8761
277,50	49,8651
278,00	49,8207
278,50	49,7920
279,00	49,7304
279,50	49,6587
280,00	49,5738
280,50	49,6137
281,00	49,4962
281,50	49,4609
282,00	49,3668
282,50	49,3466
283,00	49,2481
283,50	49,2385
284,00	49,3139
284,50	49,2830
285,00	49,2462
285,50	49,2273
286,00	49,1998
286,50	49,1507
287,00	49,0498
287,50	49,1171
288,00	49,1664
288,50	49,0697
289,00	49,1261
289,50	49,2200
290,00	49,1256
290,50	49,0565
291,00	49,0223
291,50	48,9958
292,00	48,9464
292,50	48,8310
293,00	48,7639
293,50	48,7390
294,00	48,5522
294,50	48,5861
295,00	48,6047
295,50	48,5799
296,00	48,5932
296,50	48,5369
297,00	48,5352
297,50	48,4965
298,00	48,4402
298,50	48,4117
299,00	48,3753
299,50	48,3221
300,00	48,3737
300,50	48,3462
301,00	48,2929
301,50	48,2716
302,00	48,2463
302,50	48,2579
303,00	48,2711
303,50	48,2812
304,00	48,3250
304,50	48,2723
305,00	48,3024
305,50	48,2945
306,00	48,2312
306,50	48,1760
307,00	48,1041
307,50	48,1403
308,00	48,1076
308,50	48,1502
309,00	48,3075
309,50	48,4834
310,00	48,6457
310,50	48,8836
311,00	49,1414
311,50	49,3462
312,00	49,4599
312,50	49,6782
313,00	49,7205
313,50	49,7816
314,00	49,7524
314,50	49,8000
315,00	49,6600
315,50	49,6271
316,00	49,6410
316,50	49,6120
317,00	49,6360
317,50	49,6501
318,00	49,5718
318,50	49,5998
319,00	49,5654
319,50	49,6161
320,00	49,6151
320,50	49,5171
321,00	49,5129
321,50	49,4306
322,00	49,4765
322,50	49,4218
323,00	49,4157
323,50	49,4224
324,00	49,4317
324,50	49,3702
325,00	49,4298
325,50	49,3956
326,00	49,3604
326,50	49,2221
327,00	49,1938
327,50	49,0876
328,00	49,0072
328,50	48,9902
329,00	48,9922
329,50	48,9480
330,00	48,9844
330,50	48,9625
331,00	49,0216
331,50	49,0530
332,00	49,0507
332,50	49,0737
333,00	49,1789
333,50	49,1759
334,00	49,2128
334,50	49,1349
335,00	49,1328
335,50	49,0668
336,00	49,0684
336,50	49,0623
337,00	48,9782
337,50	48,8373
338,00	48,8342
338,50	48,7643
339,00	48,8047
339,50	48,7432
340,00	48,7727
340,50	48,7303
341,00	48,7035
341,50	48,7050
342,00	48,7075
342,50	48,6424
343,00	48,5937
343,50	48,5601
344,00	48,5379
344,50	48,5374
345,00	48,5282
345,50	48,5447
346,00	48,5641
346,50	48,5009
347,00	48,5245
347,50	48,5090
348,00	48,4718
348,50	48,4491
349,00	48,3795
349,50	48,3113
350,00	48,2365
350,50	48,1937
351,00	48,1943
351,50	48,1301
352,00	48,0896
352,50	48,0269
353,00	48,0552
353,50	48,1014
354,00	48,0855
354,50	48,0771
355,00	48,0853
355,50	48,0414
356,00	47,9455
356,50	47,9597
357,00	47,9903
357,50	47,9633
358,00	47,8372
358,50	47,9891
359,00	48,0982
359,50	48,2364
360,00	48,4119
360,50	48,7034
361,00	48,8376
361,50	48,9820
362,00	49,1833
362,50	49,3876
363,00	49,4063
363,50	49,3486
364,00	49,2500
364,50	49,2539
365,00	49,1742
365,50	49,1360
366,00	49,0718
366,50	48,9946
367,00	48,9699
367,50	48,9673
368,00	49,0294
368,50	49,0879
369,00	49,0441
369,50	49,0271
370,00	49,0355
370,50	49,0927
371,00	49,0419
371,50	49,0147
372,00	48,9744
372,50	48,9154
373,00	48,8724
373,50	48,8577
374,00	48,8271
374,50	48,7848
375,00	48,6666
375,50	48,6392
376,00	48,5613
376,50	48,5313
377,00	48,4724
377,50	48,3179
378,00	48,1251
378,50	47,9478
379,00	47,7836
379,50	47,6234
380,00	47,4255
380,50	47,2387
381,00	46,9995
381,50	46,7866
382,00	46,6825
382,50	46,5781
383,00	46,4218
383,50	46,2734
384,00	46,1659
384,50	46,0552
385,00	45,9775
385,50	45,8878
386,00	45,7944
386,50	45,6662
387,00	45,5710
387,50	45,5263
388,00	45,4757
388,50	45,4244
389,00	45,3635
389,50	45,3090
390,00	45,2270
390,50	45,2263
391,00	45,2103
391,50	45,2434
392,00	45,2051
392,50	45,1800
393,00	45,1357
393,50	45,0694
394,00	45,0539
394,50	45,0738
395,00	45,0194
395,50	44,9767
396,00	44,8698
396,50	44,8618
397,00	44,8361
397,50	44,8441
398,00	44,8799
398,50	44,8477
399,00	44,8125
399,50	44,8477
400,00	44,8803
400,50	44,8940
401,00	44,8821
401,50	44,8705
402,00	44,8341
402,50	44,8112
403,00	44,7743
403,50	44,7735
404,00	44,7169
404,50	44,6685
405,00	44,6580
405,50	44,6388
406,00	44,6483
406,50	44,6506
407,00	44,6574
407,50	44,6812
408,00	44,6841
408,50	44,6650
409,00	44,6353
409,50	44,6414
410,00	44,6502
410,50	44,6377
411,00	44,6152
411,50	44,5899
412,00	44,5887
412,50	44,5315
413,00	44,5312
413,50	44,5297
414,00	44,4689
414,50	44,4570
415,00	44,4388
415,50	44,4378
416,00	44,4143
416,50	44,4028
417,00	44,3927
417,50	44,3874
418,00	44,3827
418,50	44,2761
419,00	44,1691
419,50	44,0418
420,00	43,9048
420,50	43,8142
421,00	43,6998
421,50	43,6045
422,00	43,4928
422,50	43,4093
423,00	43,4483
423,50	43,4129
424,00	43,4217
424,50	43,4074
425,00	43,3797
425,50	43,3610
426,00	43,3498
426,50	43,3473
427,00	43,3083
427,50	43,3034
428,00	43,2734
428,50	43,2805
429,00	43,3113
429,50	43,3245
430,00	43,3355
430,50	43,3383
431,00	43,3422
431,50	43,3765
432,00	43,3815
432,50	43,4141
433,00	43,4013
433,50	43,3970
434,00	43,4080
434,50	43,3953
435,00	43,3929
435,50	43,4035
436,00	43,3708
436,50	43,3572
437,00	43,3700
437,50	43,3697
438,00	43,3625
438,50	43,3247
439,00	43,3120
439,50	43,3075
440,00	43,2649
440,50	43,3032
441,00	43,2788
441,50	43,2692
442,00	43,2486
442,50	43,2404
443,00	43,2372
443,50	43,2420
444,00	43,2393
444,50	43,2439
445,00	43,2102
445,50	43,2223
446,00	43,2226
446,50	43,2263
447,00	43,2447
447,50	43,2648
448,00	43,2574
448,50	43,2439
449,00	43,2382
449,50	43,2629
450,00	43,2620
450,50	43,2494
451,00	43,2620
451,50	43,2646
452,00	43,2852
452,50	43,3074
453,00	43,3372
453,50	43,3400
454,00	43,3078
454,50	43,3159
455,00	43,3116
455,50	43,3065
456,00	43,2689
456,50	43,2529
457,00	43,2361
457,50	43,2165
458,00	43,2263
458,50	43,2515
459,00	43,2413
459,50	43,2409
460,00	43,2265
460,50	43,2174
461,00	43,2115
461,50	43,2029
462,00	43,1820
462,50	43,1574
463,00	43,1158
463,50	43,0804
464,00	43,0468
464,50	43,0420
465,00	43,0591
465,50	43,0355
466,00	43,0180
466,50	43,0172
467,00	43,0059
467,50	43,0068
468,00	42,9906
468,50	43,0005
469,00	42,9836
469,50	42,9744
470,00	42,9684
470,50	42,9577
471,00	42,9498
471,50	42,9669
472,00	42,9454
472,50	42,9613
473,00	42,9515
473,50	42,9442
474,00	42,9140
474,50	42,8926
475,00	42,9081
475,50	42,8956
476,00	42,8843
476,50	42,8742
477,00	42,8616
477,50	42,8717
478,00	42,8541
478,50	42,8503
479,00	42,8474
479,50	42,8242
480,00	42,8373
480,50	42,8206
481,00	42,8265
481,50	42,8082
482,00	42,7920
482,50	42,8021
483,00	42,8117
483,50	42,8134
484,00	42,8320
484,50	42,8112
485,00	42,8255
485,50	42,8198
486,00	42,8292
486,50	42,8546
487,00	42,8550
487,50	42,8510
488,00	42,8774
488,50	42,8683
489,00	42,8687
489,50	42,8595
490,00	42,8605
490,50	42,8653
491,00	42,8329
491,50	42,8024
492,00	42,7953
492,50	42,7891
493,00	42,7695
493,50	42,7531
494,00	42,7660
494,50	42,7713
495,00	42,7945
495,50	42,8002
496,00	42,8284
496,50	42,8283
497,00	42,8173
497,50	42,8175
498,00	42,8302
498,50	42,8182
499,00	42,8171
499,50	42,7959
500,00	42,7968
500,50	42,7801
501,00	42,7877
501,50	42,7930
502,00	42,7949
502,50	42,8091
503,00	42,8085
503,50	42,8064
504,00	42,8128
504,50	42,7997
505,00	42,7919
505,50	42,7706
506,00	42,7785
506,50	42,7823
507,00	42,7682
507,50	42,7416
508,00	42,7366
508,50	42,7200
509,00	42,7214
509,50	42,7253
510,00	42,7237
510,50	42,6997
511,00	42,6996
511,50	42,6930
512,00	42,7016
512,50	42,6972
513,00	42,6786
513,50	42,6679
514,00	42,6644
514,50	42,6901
515,00	42,6920
515,50	42,6766
516,00	42,6591
516,50	42,6534
517,00	42,6452
517,50	42,6697
518,00	42,6782
518,50	42,6721
519,00	42,6436
519,50	42,6448
520,00	42,6471
520,50	42,6593
521,00	42,6616
521,50	42,6675
522,00	42,6447
522,50	42,6523
523,00	42,6623
523,50	42,6554
524,00	42,6527
524,50	42,6503
525,00	42,6664
525,50	42,6494
526,00	42,6435
526,50	42,6311
527,00	42,6160
527,50	42,5986
528,00	42,6117
528,50	42,5601
529,00	42,5346
529,50	42,4618
530,00	42,4241
530,50	42,3739
531,00	42,3538
531,50	42,3214
532,00	42,2863
532,50	42,2224
533,00	42,2136
533,50	42,2099
534,00	42,2079
534,50	42,2244
535,00	42,2428
535,50	42,2250
536,00	42,2191
536,50	42,2257
537,00	42,2431
537,50	42,2564
538,00	42,2490
538,50	42,2694
539,00	42,2619
539,50	42,2597
540,00	42,2742
540,50	42,2574
541,00	42,2421
541,50	42,2512
542,00	42,2436
542,50	42,2460
543,00	42,2437
543,50	42,2422
544,00	42,2483
544,50	42,2460
545,00	42,2440
545,50	42,2452
546,00	42,2468
546,50	42,2377
547,00	42,2498
547,50	42,2364
548,00	42,2483
548,50	42,2451
549,00	42,2498
549,50	42,2673
550,00	42,2811
550,50	42,2649
551,00	42,2613
551,50	42,2192
552,00	42,2450
552,50	42,2159
553,00	42,1862
553,50	42,1670
554,00	42,1413
554,50	42,1396
555,00	42,1362
555,50	42,1560
556,00	42,1401
556,50	42,1172
557,00	42,1024
557,50	42,0999
558,00	42,1068
558,50	42,0902
559,00	42,0705
559,50	42,0443
560,00	42,0125
560,50	42,0213
561,00	42,0122
561,50	42,0039
562,00	41,9921
562,50	41,9794
563,00	41,9754
563,50	41,9650
564,00	41,9693
564,50	41,9478
565,00	41,9386
565,50	41,9225
566,00	41,9408
566,50	41,9458
567,00	41,9370
567,50	41,9538
568,00	41,9386
568,50	41,9343
569,00	41,9461
569,50	41,9579
570,00	41,9649
570,50	41,9618
571,00	41,9536
571,50	41,9512
572,00	41,9494
572,50	41,9352
573,00	41,9577
573,50	41,9695
574,00	41,9556
574,50	41,9408
575,00	41,9387
575,50	41,9315
576,00	41,9353
576,50	41,9367
577,00	41,9627
577,50	41,9369
578,00	41,9264
578,50	41,9030
579,00	41,9097
579,50	41,8938
580,00	41,8954
580,50	41,8943
581,00	41,8828
581,50	41,8884
582,00	41,8924
582,50	41,8925
583,00	41,9239
583,50	41,9550
584,00	41,9966
584,50	42,0019
585,00	42,0085
585,50	42,0199
586,00	42,0253
586,50	42,0504
587,00	42,0710
587,50	42,0890
588,00	42,0594
588,50	42,0414
589,00	42,0665
589,50	42,0765
590,00	42,0917
590,50	42,1117
591,00	42,0990
591,50	42,0960
592,00	42,0934
592,50	42,1054
593,00	42,1076
593,50	42,0901
594,00	42,0825
594,50	42,0859
595,00	42,0632
595,50	42,0712
596,00	42,0624
596,50	42,0448
597,00	42,0554
597,50	42,0600
598,00	42,0558
598,50	42,0446
599,00	42,0197
599,50	42,0150
600,00	41,9993
