"PEN_Q51_50um_argset_commissioning_22042024_attempt3 - Storage 141353"
"Wavelength nm."	"R%"
185,00	321,4446
185,50	276,7048
186,00	229,9507
186,50	182,2017
187,00	140,1901
187,50	96,1975
188,00	102,0571
188,50	105,2736
189,00	102,1247
189,50	92,4102
190,00	92,4926
190,50	95,4624
191,00	97,0782
191,50	92,4776
192,00	90,6139
192,50	85,3408
193,00	82,2441
193,50	78,8759
194,00	77,9114
194,50	76,3411
195,00	72,4567
195,50	72,3934
196,00	71,9038
196,50	70,5834
197,00	70,8025
197,50	70,7899
198,00	70,0758
198,50	69,6248
199,00	68,8958
199,50	69,1885
200,00	68,2988
200,50	67,7492
201,00	67,5036
201,50	68,0843
202,00	67,3669
202,50	67,0782
203,00	66,7319
203,50	65,7752
204,00	64,9776
204,50	64,4040
205,00	63,9519
205,50	62,8266
206,00	61,7291
206,50	61,9316
207,00	60,8266
207,50	60,1448
208,00	59,8582
208,50	59,4544
209,00	58,5434
209,50	58,0675
210,00	57,9890
210,50	57,2129
211,00	55,8439
211,50	55,4740
212,00	54,6060
212,50	53,7365
213,00	53,0571
213,50	52,6583
214,00	52,0684
214,50	51,4903
215,00	51,3879
215,50	50,9132
216,00	50,5510
216,50	50,4997
217,00	49,9612
217,50	49,6924
218,00	49,2908
218,50	48,8286
219,00	48,5597
219,50	47,9180
220,00	47,6415
220,50	47,3751
221,00	47,0615
221,50	47,0084
222,00	46,9574
222,50	46,6091
223,00	46,3772
223,50	45,9299
224,00	45,7006
224,50	45,5052
225,00	45,1374
225,50	44,7390
226,00	44,4737
226,50	44,1155
227,00	43,8543
227,50	43,7527
228,00	43,7332
228,50	43,5457
229,00	43,2711
229,50	43,2244
230,00	43,0764
230,50	43,0679
231,00	43,0243
231,50	42,9844
232,00	42,8280
232,50	42,6240
233,00	42,5312
233,50	42,4775
234,00	42,3289
234,50	42,3137
235,00	42,2096
235,50	42,0410
236,00	41,8946
236,50	41,9642
237,00	42,0012
237,50	41,9126
238,00	41,8937
238,50	41,8559
239,00	41,8203
239,50	41,7346
240,00	41,7438
240,50	41,8426
241,00	41,7487
241,50	41,7522
242,00	41,8565
242,50	41,9960
243,00	41,9894
243,50	42,0619
244,00	42,1366
244,50	42,2301
245,00	42,1935
245,50	42,2419
246,00	42,3523
246,50	42,4126
247,00	42,4822
247,50	42,5684
248,00	42,6390
248,50	42,6958
249,00	42,6804
249,50	42,8594
250,00	43,0974
250,50	43,1998
251,00	43,3595
251,50	43,4906
252,00	43,6724
252,50	43,9119
253,00	44,1358
253,50	44,4629
254,00	44,6509
254,50	44,7687
255,00	44,9825
255,50	45,1721
256,00	45,3538
256,50	45,5131
257,00	45,5650
257,50	45,7316
258,00	45,8976
258,50	46,0267
259,00	46,2469
259,50	46,3814
260,00	46,5230
260,50	46,5835
261,00	46,7223
261,50	46,9346
262,00	47,0152
262,50	46,9543
263,00	47,0930
263,50	47,1489
264,00	47,0892
264,50	47,1017
265,00	47,1455
265,50	47,2631
266,00	47,2854
266,50	47,2773
267,00	47,3385
267,50	47,4034
268,00	47,3519
268,50	47,3968
269,00	47,3498
269,50	47,4264
270,00	47,3021
270,50	47,1936
271,00	47,1882
271,50	47,1907
272,00	47,0351
272,50	46,9759
273,00	46,9011
273,50	46,9414
274,00	46,8217
274,50	46,8581
275,00	46,8322
275,50	46,7747
276,00	46,7108
276,50	46,6820
277,00	46,6153
277,50	46,6519
278,00	46,4762
278,50	46,4105
279,00	46,3509
279,50	46,3624
280,00	46,2920
280,50	46,2313
281,00	46,1862
281,50	46,1270
282,00	46,0380
282,50	46,0911
283,00	46,0539
283,50	46,0031
284,00	46,0038
284,50	46,0197
285,00	46,0029
285,50	46,0250
286,00	46,0811
286,50	46,0643
287,00	46,0177
287,50	46,0469
288,00	46,0397
288,50	45,9807
289,00	45,9572
289,50	46,0404
290,00	45,9359
290,50	45,8749
291,00	45,8806
291,50	45,8779
292,00	45,9199
292,50	45,9441
293,00	45,9834
293,50	45,9525
294,00	45,9246
294,50	46,0122
295,00	45,9869
295,50	45,9828
296,00	45,9268
296,50	45,8849
297,00	45,8762
297,50	45,8005
298,00	45,9264
298,50	45,8674
299,00	45,9560
299,50	46,0365
300,00	46,2171
300,50	46,2825
301,00	46,2877
301,50	46,3724
302,00	46,4875
302,50	46,5450
303,00	46,6960
303,50	46,6790
304,00	46,6865
304,50	46,6754
305,00	46,8833
305,50	46,8557
306,00	46,9170
306,50	47,0297
307,00	47,0769
307,50	47,1860
308,00	47,2369
308,50	47,5289
309,00	47,7195
309,50	47,8479
310,00	48,1176
310,50	48,2952
311,00	48,3940
311,50	48,4495
312,00	48,5435
312,50	48,6543
313,00	48,6306
313,50	48,6675
314,00	48,7679
314,50	48,8761
315,00	48,8182
315,50	48,8472
316,00	48,9512
316,50	48,9484
317,00	49,0268
317,50	49,1207
318,00	49,1454
318,50	49,0485
319,00	49,0208
319,50	49,0629
320,00	49,0171
320,50	48,9278
321,00	48,9349
321,50	48,9138
322,00	48,8628
322,50	48,7823
323,00	48,8123
323,50	48,7860
324,00	48,7595
324,50	48,8096
325,00	48,8143
325,50	48,8143
326,00	48,7571
326,50	48,7507
327,00	48,7373
327,50	48,6053
328,00	48,5942
328,50	48,5505
329,00	48,4790
329,50	48,5068
330,00	48,5142
330,50	48,5204
331,00	48,5097
331,50	48,4092
332,00	48,4185
332,50	48,3864
333,00	48,4052
333,50	48,3134
334,00	48,2995
334,50	48,1918
335,00	48,1393
335,50	48,0498
336,00	48,0682
336,50	48,0779
337,00	48,0573
337,50	48,0127
338,00	48,1157
338,50	48,0840
339,00	48,1101
339,50	48,0573
340,00	48,0114
340,50	48,0223
341,00	47,9936
341,50	47,9549
342,00	47,9486
342,50	47,8598
343,00	47,8066
343,50	47,7763
344,00	47,7691
344,50	47,7778
345,00	47,7979
345,50	47,8379
346,00	47,8488
346,50	47,8022
347,00	47,7741
347,50	47,7948
348,00	47,7345
348,50	47,7482
349,00	47,7304
349,50	47,6314
350,00	47,5100
350,50	47,4843
351,00	47,4354
351,50	47,4471
352,00	47,3935
352,50	47,4224
353,00	47,3871
353,50	47,4069
354,00	47,3826
354,50	47,4174
355,00	47,3732
355,50	47,3547
356,00	47,2987
356,50	47,3122
357,00	47,2528
357,50	47,2822
358,00	47,1949
358,50	47,4065
359,00	47,5478
359,50	47,7499
360,00	47,9674
360,50	48,1647
361,00	48,3219
361,50	48,5521
362,00	48,7254
362,50	48,9544
363,00	48,9942
363,50	49,0094
364,00	49,0009
364,50	49,0061
365,00	48,9994
365,50	49,0283
366,00	49,0002
366,50	48,9397
367,00	48,9833
367,50	48,9715
368,00	49,0179
368,50	49,0159
369,00	48,9978
369,50	49,0183
370,00	48,9936
370,50	49,0784
371,00	49,1263
371,50	49,0830
372,00	49,0333
372,50	48,9762
373,00	48,9683
373,50	49,0134
374,00	48,9988
374,50	48,9652
375,00	48,7998
375,50	48,7820
376,00	48,7224
376,50	48,6880
377,00	48,6206
377,50	48,4893
378,00	48,3129
378,50	48,1467
379,00	47,9865
379,50	47,8341
380,00	47,5966
380,50	47,3932
381,00	47,1943
381,50	46,9958
382,00	46,8617
382,50	46,6781
383,00	46,5296
383,50	46,3468
384,00	46,2135
384,50	46,1171
385,00	46,0215
385,50	45,8980
386,00	45,8026
386,50	45,6669
387,00	45,5660
387,50	45,5049
388,00	45,4454
388,50	45,3919
389,00	45,3222
389,50	45,2622
390,00	45,1897
390,50	45,1440
391,00	45,1122
391,50	45,1104
392,00	45,0578
392,50	45,0151
393,00	44,9977
393,50	44,9504
394,00	44,9267
394,50	44,9207
395,00	44,8696
395,50	44,8417
396,00	44,7887
396,50	44,8052
397,00	44,8204
397,50	44,8203
398,00	44,8477
398,50	44,8296
399,00	44,8167
399,50	44,8568
400,00	44,8727
400,50	44,8784
401,00	44,8410
401,50	44,8505
402,00	44,8233
402,50	44,8038
403,00	44,7959
403,50	44,8343
404,00	44,7734
404,50	44,7822
405,00	44,7701
405,50	44,7419
406,00	44,7084
406,50	44,7104
407,00	44,7114
407,50	44,6843
408,00	44,6307
408,50	44,6461
409,00	44,5834
409,50	44,5691
410,00	44,5749
410,50	44,5617
411,00	44,5169
411,50	44,4731
412,00	44,4514
412,50	44,4411
413,00	44,4127
413,50	44,4321
414,00	44,4272
414,50	44,4079
415,00	44,3900
415,50	44,3850
416,00	44,3467
416,50	44,3471
417,00	44,3040
417,50	44,2976
418,00	44,2395
418,50	44,1458
419,00	44,0324
419,50	43,9360
420,00	43,8419
420,50	43,7712
421,00	43,6810
421,50	43,6001
422,00	43,4992
422,50	43,4350
423,00	43,4064
423,50	43,3965
424,00	43,3944
424,50	43,3781
425,00	43,3431
425,50	43,3236
426,00	43,3215
426,50	43,2965
427,00	43,2547
427,50	43,2876
428,00	43,2727
428,50	43,2672
429,00	43,2808
429,50	43,3018
430,00	43,3098
430,50	43,3198
431,00	43,3296
431,50	43,3499
432,00	43,3405
432,50	43,3807
433,00	43,3583
433,50	43,3507
434,00	43,3296
434,50	43,3180
435,00	43,3031
435,50	43,3282
436,00	43,3324
436,50	43,3238
437,00	43,2965
437,50	43,3027
438,00	43,2878
438,50	43,3132
439,00	43,3019
439,50	43,3079
440,00	43,2673
440,50	43,2755
441,00	43,2766
441,50	43,2773
442,00	43,2663
442,50	43,2590
443,00	43,2525
443,50	43,2546
444,00	43,2604
444,50	43,2480
445,00	43,2431
445,50	43,2175
446,00	43,2108
446,50	43,2336
447,00	43,2600
447,50	43,2570
448,00	43,2494
448,50	43,2405
449,00	43,2640
449,50	43,2593
450,00	43,2775
450,50	43,2971
451,00	43,2715
451,50	43,2665
452,00	43,2730
452,50	43,3095
453,00	43,2901
453,50	43,2779
454,00	43,2643
454,50	43,2662
455,00	43,2562
455,50	43,2718
456,00	43,2501
456,50	43,2248
457,00	43,1942
457,50	43,2031
458,00	43,2141
458,50	43,2358
459,00	43,2122
459,50	43,2127
460,00	43,1978
460,50	43,1900
461,00	43,1928
461,50	43,1640
462,00	43,1345
462,50	43,1085
463,00	43,0771
463,50	43,0696
464,00	43,0413
464,50	43,0163
465,00	43,0296
465,50	43,0179
466,00	43,0146
466,50	43,0121
467,00	42,9963
467,50	42,9886
468,00	42,9704
468,50	42,9570
469,00	42,9497
469,50	42,9182
470,00	42,9099
470,50	42,9014
471,00	42,8931
471,50	42,9084
472,00	42,8847
472,50	42,8845
473,00	42,8664
473,50	42,8577
474,00	42,8511
474,50	42,8243
475,00	42,8236
475,50	42,8231
476,00	42,8117
476,50	42,8173
477,00	42,8119
477,50	42,8226
478,00	42,8254
478,50	42,8271
479,00	42,8323
479,50	42,8071
480,00	42,8159
480,50	42,8164
481,00	42,8047
481,50	42,7996
482,00	42,7922
482,50	42,7942
483,00	42,7973
483,50	42,7976
484,00	42,8358
484,50	42,8281
485,00	42,8245
485,50	42,8176
486,00	42,8098
486,50	42,8261
487,00	42,8170
487,50	42,8199
488,00	42,8239
488,50	42,8126
489,00	42,8065
489,50	42,8092
490,00	42,8194
490,50	42,8271
491,00	42,8103
491,50	42,8102
492,00	42,8042
492,50	42,8232
493,00	42,8057
493,50	42,7830
494,00	42,7937
494,50	42,8003
495,00	42,8022
495,50	42,8106
496,00	42,8142
496,50	42,8137
497,00	42,8060
497,50	42,8137
498,00	42,8352
498,50	42,8055
499,00	42,8064
499,50	42,8087
500,00	42,7919
500,50	42,7991
501,00	42,7985
501,50	42,7955
502,00	42,7943
502,50	42,7726
503,00	42,7706
503,50	42,7725
504,00	42,7685
504,50	42,7784
505,00	42,7743
505,50	42,7581
506,00	42,7582
506,50	42,7600
507,00	42,7836
507,50	42,7821
508,00	42,7692
508,50	42,7592
509,00	42,7527
509,50	42,7489
510,00	42,7315
510,50	42,7298
511,00	42,7306
511,50	42,6967
512,00	42,7065
512,50	42,6929
513,00	42,6732
513,50	42,6708
514,00	42,6811
514,50	42,7008
515,00	42,6792
515,50	42,6681
516,00	42,6904
516,50	42,6763
517,00	42,6885
517,50	42,7014
518,00	42,6864
518,50	42,6578
519,00	42,6574
519,50	42,6558
520,00	42,6712
520,50	42,6525
521,00	42,6479
521,50	42,6431
522,00	42,6265
522,50	42,6466
523,00	42,6595
523,50	42,6551
524,00	42,6733
524,50	42,6538
525,00	42,6605
525,50	42,6662
526,00	42,6570
526,50	42,6423
527,00	42,6187
527,50	42,5834
528,00	42,5763
528,50	42,5321
529,00	42,4977
529,50	42,4540
530,00	42,3922
530,50	42,3600
531,00	42,3356
531,50	42,3006
532,00	42,2783
532,50	42,2587
533,00	42,2377
533,50	42,2475
534,00	42,2702
534,50	42,2911
535,00	42,2955
535,50	42,3024
536,00	42,3054
536,50	42,3055
537,00	42,2911
537,50	42,2853
538,00	42,2780
538,50	42,2410
539,00	42,2311
539,50	42,2367
540,00	42,2452
540,50	42,2210
541,00	42,2215
541,50	42,2067
542,00	42,2239
542,50	42,2156
543,00	42,2452
543,50	42,2602
544,00	42,2478
544,50	42,2366
545,00	42,2653
545,50	42,2538
546,00	42,2646
546,50	42,2443
547,00	42,2504
547,50	42,2362
548,00	42,2040
548,50	42,1927
549,00	42,1804
549,50	42,1601
550,00	42,1697
550,50	42,1663
551,00	42,1921
551,50	42,1609
552,00	42,1702
552,50	42,1840
553,00	42,1961
553,50	42,2158
554,00	42,2175
554,50	42,2061
555,00	42,1983
555,50	42,1744
556,00	42,1618
556,50	42,1362
557,00	42,1154
557,50	42,0754
558,00	42,0389
558,50	42,0182
559,00	42,0107
559,50	41,9996
560,00	41,9952
560,50	42,0019
561,00	42,0032
561,50	41,9848
562,00	41,9872
562,50	42,0039
563,00	41,9965
563,50	41,9836
564,00	41,9905
564,50	41,9683
565,00	41,9749
565,50	41,9716
566,00	41,9770
566,50	41,9665
567,00	41,9656
567,50	41,9625
568,00	41,9533
568,50	41,9204
569,00	41,9323
569,50	41,9373
570,00	41,9140
570,50	41,9139
571,00	41,9144
571,50	41,8888
572,00	41,9032
572,50	41,9195
573,00	41,9212
573,50	41,9135
574,00	41,8826
574,50	41,8961
575,00	41,8862
575,50	41,8807
576,00	41,8951
576,50	41,8878
577,00	41,8747
577,50	41,8837
578,00	41,8888
578,50	41,8980
579,00	41,8830
579,50	41,8895
580,00	41,8968
580,50	41,8677
581,00	41,8556
581,50	41,8677
582,00	41,8822
582,50	41,8673
583,00	41,8568
583,50	41,8722
584,00	41,9069
584,50	41,9001
585,00	41,9377
585,50	41,9464
586,00	41,9448
586,50	41,9433
587,00	41,9626
587,50	41,9972
588,00	42,0009
588,50	41,9798
589,00	42,0186
589,50	41,9999
590,00	42,0075
590,50	42,0363
591,00	42,0499
591,50	42,0529
592,00	42,0468
592,50	42,0576
593,00	42,0747
593,50	42,0585
594,00	42,0667
594,50	42,0886
595,00	42,0712
595,50	42,0632
596,00	42,0565
596,50	42,0580
597,00	42,0471
597,50	42,0374
598,00	42,0541
598,50	42,0755
599,00	42,0774
599,50	42,0920
600,00	42,1042
