"pen_teonex_Q51_old_spot1 - Storage 133256"
"Wavelength nm."	"R%"
185,00	363,3652
185,50	309,7222
186,00	257,5503
186,50	205,5029
187,00	160,5803
187,50	109,7228
188,00	117,3123
188,50	123,5894
189,00	118,1082
189,50	111,9243
190,00	115,9140
190,50	117,0292
191,00	117,2217
191,50	109,3235
192,00	107,5282
192,50	105,8763
193,00	104,6964
193,50	101,0841
194,00	97,1967
194,50	95,1759
195,00	93,2975
195,50	93,4656
196,00	92,7734
196,50	92,1553
197,00	91,0494
197,50	91,3442
198,00	92,0311
198,50	92,3359
199,00	91,2665
199,50	90,4288
200,00	88,8213
200,50	88,6031
201,00	88,0317
201,50	88,0903
202,00	86,5463
202,50	85,0736
203,00	85,1485
203,50	83,6131
204,00	83,1733
204,50	82,5878
205,00	82,4474
205,50	81,3232
206,00	79,1009
206,50	79,0620
207,00	78,9040
207,50	78,2631
208,00	77,6266
208,50	76,8124
209,00	76,0690
209,50	74,6822
210,00	74,6822
210,50	74,7893
211,00	73,3007
211,50	72,0284
212,00	71,0737
212,50	70,2710
213,00	69,7996
213,50	68,9969
214,00	68,4384
214,50	67,5095
215,00	66,8043
215,50	66,1666
216,00	65,5673
216,50	65,2428
217,00	64,4882
217,50	63,6667
218,00	62,7092
218,50	62,0774
219,00	61,6061
219,50	60,7900
220,00	60,4749
220,50	60,1837
221,00	59,3808
221,50	59,0908
222,00	58,8104
222,50	58,2903
223,00	57,9282
223,50	57,4166
224,00	56,8948
224,50	56,5528
225,00	55,8952
225,50	55,5136
226,00	55,1667
226,50	54,6650
227,00	54,5009
227,50	54,1574
228,00	53,7999
228,50	53,6124
229,00	53,0374
229,50	52,7593
230,00	52,5103
230,50	52,4148
231,00	52,1875
231,50	51,8804
232,00	51,5860
232,50	51,2838
233,00	51,0672
233,50	50,9881
234,00	50,8346
234,50	50,5162
235,00	50,2347
235,50	50,0714
236,00	49,8837
236,50	49,8390
237,00	49,8379
237,50	49,6792
238,00	49,4849
238,50	49,3468
239,00	49,3329
239,50	49,2032
240,00	49,0512
240,50	49,1017
241,00	48,9138
241,50	48,8354
242,00	48,6918
242,50	48,7160
243,00	48,6838
243,50	48,7103
244,00	48,7194
244,50	48,6990
245,00	48,5068
245,50	48,5624
246,00	48,5491
246,50	48,6669
247,00	48,6701
247,50	48,5547
248,00	48,4706
248,50	48,3845
249,00	48,2984
249,50	48,3451
250,00	48,2716
250,50	48,2631
251,00	48,2541
251,50	48,2348
252,00	48,3667
252,50	48,4326
253,00	48,6019
253,50	48,8536
254,00	48,9376
254,50	49,1047
255,00	49,2101
255,50	49,3062
256,00	49,3001
256,50	49,3973
257,00	49,4855
257,50	49,5441
258,00	49,5484
258,50	49,5610
259,00	49,6907
259,50	49,7578
260,00	49,8986
260,50	50,0278
261,00	50,0532
261,50	50,1083
262,00	50,1708
262,50	50,1996
263,00	50,3499
263,50	50,3115
264,00	50,3742
264,50	50,3212
265,00	50,4022
265,50	50,5109
266,00	50,5497
266,50	50,5449
267,00	50,5345
267,50	50,5506
268,00	50,5490
268,50	50,4800
269,00	50,4582
269,50	50,4031
270,00	50,2384
270,50	50,0907
271,00	49,9724
271,50	50,0433
272,00	50,0265
272,50	50,0000
273,00	50,0024
273,50	49,9319
274,00	49,9592
274,50	49,9974
275,00	50,1204
275,50	50,1470
276,00	50,0776
276,50	49,9953
277,00	49,9342
277,50	49,9278
278,00	49,8826
278,50	49,8291
279,00	49,7513
279,50	49,6859
280,00	49,6307
280,50	49,5687
281,00	49,5440
281,50	49,4537
282,00	49,4073
282,50	49,4275
283,00	49,3323
283,50	49,3344
284,00	49,3451
284,50	49,3126
285,00	49,2590
285,50	49,1920
286,00	49,2764
286,50	49,1443
287,00	49,1553
287,50	49,1094
288,00	49,1292
288,50	49,0013
289,00	48,9898
289,50	49,0353
290,00	48,9909
290,50	48,9301
291,00	48,9568
291,50	48,8170
292,00	48,8666
292,50	48,7737
293,00	48,8159
293,50	48,7120
294,00	48,6816
294,50	48,6538
295,00	48,6150
295,50	48,5625
296,00	48,5693
296,50	48,5599
297,00	48,5325
297,50	48,4245
298,00	48,4890
298,50	48,3540
299,00	48,4416
299,50	48,4490
300,00	48,5033
300,50	48,5111
301,00	48,4278
301,50	48,5133
302,00	48,5367
302,50	48,5470
303,00	48,6017
303,50	48,4905
304,00	48,4231
304,50	48,4042
305,00	48,4538
305,50	48,4138
306,00	48,3708
306,50	48,4099
307,00	48,3684
307,50	48,4671
308,00	48,5620
308,50	48,8389
309,00	49,0833
309,50	49,2317
310,00	49,4870
310,50	49,6854
311,00	49,8456
311,50	49,9327
312,00	50,0455
312,50	50,1431
313,00	50,0750
313,50	49,9824
314,00	49,9437
314,50	49,8856
315,00	49,7639
315,50	49,7923
316,00	49,9308
316,50	49,8367
317,00	49,9184
317,50	49,9227
318,00	49,9172
318,50	49,8605
319,00	49,8368
319,50	49,8634
320,00	49,7370
320,50	49,6343
321,00	49,6714
321,50	49,5540
322,00	49,5715
322,50	49,5806
323,00	49,6832
323,50	49,7125
324,00	49,7063
324,50	49,7663
325,00	49,7324
325,50	49,7118
326,00	49,7152
326,50	49,6281
327,00	49,5633
327,50	49,4639
328,00	49,4220
328,50	49,4563
329,00	49,4057
329,50	49,4739
330,00	49,4712
330,50	49,3815
331,00	49,4241
331,50	49,3835
332,00	49,3701
332,50	49,3707
333,00	49,3190
333,50	49,3009
334,00	49,2465
334,50	49,2263
335,00	49,2922
335,50	49,2168
336,00	49,2017
336,50	49,1580
337,00	49,1073
337,50	49,0784
338,00	49,0781
338,50	49,0765
339,00	49,0473
339,50	48,9425
340,00	48,9885
340,50	49,0373
341,00	49,0161
341,50	48,9915
342,00	48,9244
342,50	48,8829
343,00	48,8367
343,50	48,7815
344,00	48,7866
344,50	48,7101
345,00	48,6794
345,50	48,7044
346,00	48,7045
346,50	48,7302
347,00	48,7583
347,50	48,6939
348,00	48,6921
348,50	48,6808
349,00	48,6447
349,50	48,5417
350,00	48,4533
350,50	48,4430
351,00	48,4350
351,50	48,3500
352,00	48,3537
352,50	48,3661
353,00	48,3829
353,50	48,3800
354,00	48,3990
354,50	48,4029
355,00	48,3685
355,50	48,2503
356,00	48,2003
356,50	48,1893
357,00	48,1043
357,50	48,0878
358,00	47,9841
358,50	48,1674
359,00	48,3389
359,50	48,5274
360,00	48,7054
360,50	48,9149
361,00	49,0317
361,50	49,2155
362,00	49,3421
362,50	49,5449
363,00	49,5114
363,50	49,4345
364,00	49,3715
364,50	49,3904
365,00	49,3403
365,50	49,3706
366,00	49,3357
366,50	49,2507
367,00	49,2956
367,50	49,2686
368,00	49,3348
368,50	49,3027
369,00	49,2832
369,50	49,3307
370,00	49,2818
370,50	49,3449
371,00	49,3862
371,50	49,3472
372,00	49,3249
372,50	49,2725
373,00	49,2324
373,50	49,1952
374,00	49,0781
374,50	49,0793
375,00	48,9282
375,50	48,8968
376,00	48,8149
376,50	48,7370
377,00	48,6160
377,50	48,5000
378,00	48,3554
378,50	48,1919
379,00	47,9797
379,50	47,7829
380,00	47,5658
380,50	47,3359
381,00	47,1357
381,50	46,9524
382,00	46,8318
382,50	46,6924
383,00	46,5741
383,50	46,4438
384,00	46,3609
384,50	46,2552
385,00	46,1935
385,50	46,1087
386,00	45,9856
386,50	45,8620
387,00	45,7449
387,50	45,6775
388,00	45,5895
388,50	45,5241
389,00	45,4529
389,50	45,4126
390,00	45,3330
390,50	45,3140
391,00	45,2842
391,50	45,2653
392,00	45,2469
392,50	45,2584
393,00	45,2140
393,50	45,1891
394,00	45,1358
394,50	45,1388
395,00	45,1077
395,50	45,1048
396,00	45,0844
396,50	45,0611
397,00	45,0350
397,50	45,0639
398,00	45,0816
398,50	45,0553
399,00	45,0340
399,50	45,0751
400,00	45,0438
400,50	45,0411
401,00	45,0453
401,50	45,0377
402,00	44,9854
402,50	44,9271
403,00	44,9024
403,50	44,8838
404,00	44,8291
404,50	44,8086
405,00	44,8017
405,50	44,7622
406,00	44,7356
406,50	44,7342
407,00	44,7540
407,50	44,7794
408,00	44,7574
408,50	44,7384
409,00	44,7115
409,50	44,6903
410,00	44,6790
410,50	44,7000
411,00	44,6755
411,50	44,6356
412,00	44,6255
412,50	44,6256
413,00	44,6149
413,50	44,6164
414,00	44,5947
414,50	44,5992
415,00	44,5582
415,50	44,5570
416,00	44,5431
416,50	44,5034
417,00	44,4879
417,50	44,4831
418,00	44,4513
418,50	44,3481
419,00	44,2410
419,50	44,1278
420,00	44,0222
420,50	43,9513
421,00	43,8596
421,50	43,7829
422,00	43,6864
422,50	43,6041
423,00	43,5911
423,50	43,5674
424,00	43,5778
424,50	43,5753
425,00	43,5413
425,50	43,5336
426,00	43,5020
426,50	43,4799
427,00	43,4583
427,50	43,4792
428,00	43,4885
428,50	43,4855
429,00	43,4816
429,50	43,4775
430,00	43,4704
430,50	43,4794
431,00	43,5113
431,50	43,5200
432,00	43,5352
432,50	43,5260
433,00	43,5426
433,50	43,5477
434,00	43,5530
434,50	43,5506
435,00	43,5417
435,50	43,5393
436,00	43,5485
436,50	43,5171
437,00	43,5180
437,50	43,4840
438,00	43,4747
438,50	43,4737
439,00	43,4763
439,50	43,4881
440,00	43,4521
440,50	43,4567
441,00	43,4430
441,50	43,4526
442,00	43,4328
442,50	43,4315
443,00	43,4196
443,50	43,3888
444,00	43,3674
444,50	43,3395
445,00	43,3251
445,50	43,3639
446,00	43,3461
446,50	43,3640
447,00	43,3584
447,50	43,3791
448,00	43,3960
448,50	43,3985
449,00	43,4296
449,50	43,4317
450,00	43,4089
450,50	43,4263
451,00	43,4336
451,50	43,4407
452,00	43,4392
452,50	43,4517
453,00	43,4569
453,50	43,4540
454,00	43,4602
454,50	43,4628
455,00	43,4343
455,50	43,4241
456,00	43,3951
456,50	43,3759
457,00	43,3628
457,50	43,3563
458,00	43,3591
458,50	43,3565
459,00	43,3183
459,50	43,3363
460,00	43,3202
460,50	43,3239
461,00	43,3233
461,50	43,3132
462,00	43,3030
462,50	43,2799
463,00	43,2443
463,50	43,2445
464,00	43,2118
464,50	43,2148
465,00	43,2107
465,50	43,2018
466,00	43,1799
466,50	43,1698
467,00	43,1419
467,50	43,1480
468,00	43,1401
468,50	43,1383
469,00	43,1187
469,50	43,1393
470,00	43,1286
470,50	43,1322
471,00	43,1134
471,50	43,1454
472,00	43,1104
472,50	43,1324
473,00	43,0987
473,50	43,0849
474,00	43,0412
474,50	43,0253
475,00	43,0183
475,50	43,0134
476,00	42,9776
476,50	42,9881
477,00	42,9574
477,50	42,9709
478,00	42,9932
478,50	42,9862
479,00	42,9780
479,50	42,9784
480,00	42,9754
480,50	42,9863
481,00	42,9950
481,50	43,0036
482,00	43,0110
482,50	42,9844
483,00	42,9853
483,50	42,9835
484,00	42,9948
484,50	42,9939
485,00	42,9805
485,50	42,9620
486,00	42,9462
486,50	42,9364
487,00	42,9424
487,50	42,9411
488,00	42,9543
488,50	42,9426
489,00	42,9344
489,50	42,9504
490,00	42,9543
490,50	42,9629
491,00	42,9564
491,50	42,9618
492,00	42,9753
492,50	42,9748
493,00	42,9775
493,50	42,9850
494,00	42,9946
494,50	43,0011
495,00	43,0060
495,50	43,0223
496,00	43,0047
496,50	43,0072
497,00	43,0181
497,50	42,9950
498,00	42,9965
498,50	42,9839
499,00	42,9843
499,50	42,9728
500,00	42,9776
500,50	42,9720
501,00	42,9654
501,50	42,9675
502,00	42,9729
502,50	42,9792
503,00	42,9930
503,50	42,9884
504,00	42,9998
504,50	42,9885
505,00	43,0221
505,50	43,0053
506,00	42,9981
506,50	43,0035
507,00	42,9992
507,50	42,9652
508,00	42,9712
508,50	42,9529
509,00	42,9538
509,50	42,9320
510,00	42,9416
510,50	42,9166
511,00	42,9194
511,50	42,9091
512,00	42,9130
512,50	42,9025
513,00	42,8923
513,50	42,8817
514,00	42,8802
514,50	42,8755
515,00	42,8879
515,50	42,8612
516,00	42,8592
516,50	42,8651
517,00	42,8622
517,50	42,8563
518,00	42,8540
518,50	42,8606
519,00	42,8686
519,50	42,8465
520,00	42,8715
520,50	42,8821
521,00	42,8782
521,50	42,8887
522,00	42,8867
522,50	42,8843
523,00	42,8604
523,50	42,8366
524,00	42,8594
524,50	42,8420
525,00	42,8256
525,50	42,7988
526,00	42,7828
526,50	42,8039
527,00	42,7974
527,50	42,7730
528,00	42,7611
528,50	42,7128
529,00	42,6773
529,50	42,6187
530,00	42,5720
530,50	42,5443
531,00	42,4880
531,50	42,4402
532,00	42,4390
532,50	42,3922
533,00	42,3781
533,50	42,3683
534,00	42,3848
534,50	42,4159
535,00	42,4023
535,50	42,4040
536,00	42,4165
536,50	42,3962
537,00	42,4214
537,50	42,4147
538,00	42,4159
538,50	42,4120
539,00	42,3967
539,50	42,4006
540,00	42,3976
540,50	42,3693
541,00	42,3756
541,50	42,3559
542,00	42,3512
542,50	42,3645
543,00	42,3716
543,50	42,3713
544,00	42,3841
544,50	42,3834
545,00	42,4015
545,50	42,4024
546,00	42,4109
546,50	42,4258
547,00	42,4188
547,50	42,3952
548,00	42,4008
548,50	42,3889
549,00	42,3973
549,50	42,4036
550,00	42,4068
550,50	42,3948
551,00	42,3806
551,50	42,3592
552,00	42,3859
552,50	42,3665
553,00	42,3367
553,50	42,3345
554,00	42,3185
554,50	42,2936
555,00	42,3001
555,50	42,3054
556,00	42,2947
556,50	42,2812
557,00	42,2764
557,50	42,2785
558,00	42,2432
558,50	42,2358
559,00	42,2494
559,50	42,2193
560,00	42,2072
560,50	42,2182
561,00	42,2053
561,50	42,1825
562,00	42,1597
562,50	42,1636
563,00	42,1549
563,50	42,1459
564,00	42,1566
564,50	42,1327
565,00	42,1123
565,50	42,0869
566,00	42,0987
566,50	42,0940
567,00	42,0981
567,50	42,0893
568,00	42,0806
568,50	42,0683
569,00	42,0690
569,50	42,0906
570,00	42,1115
570,50	42,1158
571,00	42,1219
571,50	42,1097
572,00	42,1260
572,50	42,1005
573,00	42,1123
573,50	42,1300
574,00	42,0902
574,50	42,0770
575,00	42,0861
575,50	42,0766
576,00	42,0872
576,50	42,0750
577,00	42,0965
577,50	42,1042
578,00	42,0941
578,50	42,1086
579,00	42,1056
579,50	42,0787
580,00	42,0961
580,50	42,0949
581,00	42,0896
581,50	42,1027
582,00	42,1016
582,50	42,0994
583,00	42,0740
583,50	42,0920
584,00	42,1208
584,50	42,1224
585,00	42,1336
585,50	42,1358
586,00	42,1299
586,50	42,1273
587,00	42,1444
587,50	42,1968
588,00	42,1985
588,50	42,1995
589,00	42,2178
589,50	42,2007
590,00	42,2155
590,50	42,2324
591,00	42,2364
591,50	42,2359
592,00	42,2290
592,50	42,2231
593,00	42,2266
593,50	42,2225
594,00	42,2334
594,50	42,2453
595,00	42,2259
595,50	42,2222
596,00	42,2194
596,50	42,2249
597,00	42,2382
597,50	42,2137
598,00	42,2042
598,50	42,2000
599,00	42,1833
599,50	42,1876
600,00	42,1866
