"pen_argset_A_BottomSurface_centre - Storage 115046"
"Wavelength nm."	"R%"
185,00	552,2928
185,50	469,9841
186,00	384,2337
186,50	297,1004
187,00	213,7406
187,50	128,7647
188,00	128,4088
188,50	129,5959
189,00	135,5489
189,50	133,6511
190,00	126,9440
190,50	126,1462
191,00	124,5503
191,50	119,6673
192,00	116,0915
192,50	110,9084
193,00	107,2407
193,50	101,3149
194,00	97,6164
194,50	97,8359
195,00	94,6480
195,50	96,4607
196,00	95,4348
196,50	94,9685
197,00	95,1618
197,50	94,6433
198,00	93,2358
198,50	94,0187
199,00	93,9458
199,50	93,9548
200,00	91,1424
200,50	90,2573
201,00	89,6427
201,50	89,9630
202,00	88,5521
202,50	87,4641
203,00	86,6670
203,50	84,9970
204,00	84,3874
204,50	83,7141
205,00	83,6591
205,50	82,0532
206,00	80,5800
206,50	80,9151
207,00	80,3416
207,50	79,0925
208,00	78,9003
208,50	77,9513
209,00	77,1756
209,50	76,2478
210,00	76,5913
210,50	75,9537
211,00	74,1403
211,50	72,7955
212,00	72,1811
212,50	71,2532
213,00	70,6262
213,50	69,9718
214,00	69,1538
214,50	67,9857
215,00	67,4958
215,50	66,9406
216,00	66,4839
216,50	65,9376
217,00	65,1307
217,50	64,5098
218,00	63,7037
218,50	62,8676
219,00	62,0953
219,50	61,3233
220,00	60,9343
220,50	60,6416
221,00	59,9418
221,50	59,4431
222,00	59,1742
222,50	58,7808
223,00	58,4904
223,50	58,2293
224,00	57,6762
224,50	57,2022
225,00	56,6107
225,50	56,2045
226,00	55,8175
226,50	55,2358
227,00	54,9158
227,50	54,5003
228,00	54,1424
228,50	53,9645
229,00	53,5983
229,50	53,3663
230,00	53,2052
230,50	53,0065
231,00	52,7160
231,50	52,3579
232,00	52,1734
232,50	51,8510
233,00	51,5567
233,50	51,2374
234,00	51,0083
234,50	50,7367
235,00	50,5931
235,50	50,5163
236,00	50,3791
236,50	50,3315
237,00	50,2461
237,50	50,0945
238,00	50,0425
238,50	49,8950
239,00	49,7681
239,50	49,6453
240,00	49,4910
240,50	49,4577
241,00	49,2818
241,50	49,3033
242,00	49,3432
242,50	49,4021
243,00	49,3681
243,50	49,3766
244,00	49,3912
244,50	49,3733
245,00	49,3118
245,50	49,2581
246,00	49,2153
246,50	49,2114
247,00	49,1740
247,50	49,1352
248,00	49,1546
248,50	49,0389
249,00	48,9984
249,50	49,0209
250,00	49,1237
250,50	49,1365
251,00	49,0921
251,50	49,1473
252,00	49,2138
252,50	49,2220
253,00	49,2932
253,50	49,5527
254,00	49,6672
254,50	49,7282
255,00	49,7337
255,50	49,7640
256,00	49,7346
256,50	49,8236
257,00	49,8752
257,50	49,9271
258,00	49,8721
258,50	49,9307
259,00	50,0100
259,50	50,1534
260,00	50,2686
260,50	50,3566
261,00	50,4155
261,50	50,5823
262,00	50,7126
262,50	50,6470
263,00	50,8107
263,50	50,8680
264,00	50,8675
264,50	50,9262
265,00	50,9478
265,50	50,9899
266,00	50,9799
266,50	50,8164
267,00	50,9051
267,50	50,7783
268,00	50,7181
268,50	50,6819
269,00	50,5597
269,50	50,5232
270,00	50,4577
270,50	50,3306
271,00	50,3995
271,50	50,4357
272,00	50,3351
272,50	50,2449
273,00	50,2259
273,50	50,2468
274,00	50,3019
274,50	50,2434
275,00	50,2775
275,50	50,2278
276,00	50,1522
276,50	50,1430
277,00	50,1247
277,50	50,0907
278,00	50,0031
278,50	49,9206
279,00	49,9647
279,50	49,8246
280,00	49,7502
280,50	49,7786
281,00	49,6800
281,50	49,6423
282,00	49,6248
282,50	49,6800
283,00	49,5883
283,50	49,4909
284,00	49,5255
284,50	49,4727
285,00	49,3746
285,50	49,4312
286,00	49,4056
286,50	49,3072
287,00	49,2206
287,50	49,2256
288,00	49,2377
288,50	49,2200
289,00	49,2417
289,50	49,2046
290,00	49,1323
290,50	49,1059
291,00	49,0934
291,50	49,1133
292,00	49,0454
292,50	48,9619
293,00	48,9850
293,50	49,0203
294,00	49,0797
294,50	49,0919
295,00	49,1178
295,50	49,1331
296,00	49,0645
296,50	49,1058
297,00	49,0768
297,50	49,0252
298,00	48,9820
298,50	48,8736
299,00	48,8692
299,50	48,8336
300,00	48,8661
300,50	48,8874
301,00	48,8273
301,50	48,8632
302,00	48,8525
302,50	48,8119
303,00	48,8676
303,50	48,8037
304,00	48,7351
304,50	48,6375
305,00	48,6860
305,50	48,6272
306,00	48,5697
306,50	48,4997
307,00	48,5049
307,50	48,4181
308,00	48,5249
308,50	48,7851
309,00	48,9503
309,50	49,0319
310,00	49,2362
310,50	49,3920
311,00	49,6412
311,50	49,7894
312,00	49,8944
312,50	49,9762
313,00	49,9295
313,50	49,9884
314,00	50,0287
314,50	49,9646
315,00	49,9407
315,50	49,8224
316,00	49,7842
316,50	49,8217
317,00	49,8226
317,50	49,8534
318,00	49,8419
318,50	49,7806
319,00	49,8587
319,50	49,8893
320,00	49,8914
320,50	49,8946
321,00	49,8730
321,50	49,8500
322,00	49,7913
322,50	49,6882
323,00	49,7625
323,50	49,7407
324,00	49,6979
324,50	49,7130
325,00	49,7528
325,50	49,7094
326,00	49,6902
326,50	49,6303
327,00	49,6460
327,50	49,5121
328,00	49,4455
328,50	49,4589
329,00	49,4085
329,50	49,3868
330,00	49,4469
330,50	49,3967
331,00	49,4000
331,50	49,4032
332,00	49,4334
332,50	49,4310
333,00	49,3786
333,50	49,3501
334,00	49,2890
334,50	49,2097
335,00	49,2403
335,50	49,1787
336,00	49,0954
336,50	48,9991
337,00	48,9813
337,50	48,9676
338,00	48,9665
338,50	48,9912
339,00	49,0125
339,50	48,9430
340,00	48,9081
340,50	48,9690
341,00	48,9760
341,50	48,9137
342,00	48,9030
342,50	48,8443
343,00	48,7548
343,50	48,6866
344,00	48,7242
344,50	48,7466
345,00	48,7125
345,50	48,7451
346,00	48,7591
346,50	48,7160
347,00	48,7352
347,50	48,7176
348,00	48,7599
348,50	48,7140
349,00	48,6778
349,50	48,6447
350,00	48,6282
350,50	48,5643
351,00	48,5571
351,50	48,5543
352,00	48,5335
352,50	48,4517
353,00	48,4127
353,50	48,4044
354,00	48,3191
354,50	48,2415
355,00	48,2664
355,50	48,2460
356,00	48,1895
356,50	48,1686
357,00	48,1190
357,50	48,1267
358,00	48,0498
358,50	48,2228
359,00	48,4154
359,50	48,5472
360,00	48,6898
360,50	48,8786
361,00	49,0788
361,50	49,2832
362,00	49,4597
362,50	49,6143
363,00	49,6512
363,50	49,5945
364,00	49,5834
364,50	49,5870
365,00	49,5548
365,50	49,4945
366,00	49,4361
366,50	49,3203
367,00	49,3693
367,50	49,3253
368,00	49,3464
368,50	49,3211
369,00	49,2549
369,50	49,2095
370,00	49,2018
370,50	49,2218
371,00	49,2295
371,50	49,1853
372,00	49,1649
372,50	49,0846
373,00	49,0797
373,50	49,0836
374,00	49,0597
374,50	49,0053
375,00	48,9026
375,50	48,8930
376,00	48,8444
376,50	48,7762
377,00	48,7489
377,50	48,5740
378,00	48,4482
378,50	48,2918
379,00	48,1611
379,50	47,9775
380,00	47,7903
380,50	47,6135
381,00	47,4480
381,50	47,2831
382,00	47,1572
382,50	46,9775
383,00	46,8539
383,50	46,6670
384,00	46,5605
384,50	46,3915
385,00	46,2850
385,50	46,1652
386,00	46,0406
386,50	45,9685
387,00	45,9127
387,50	45,8202
388,00	45,7800
388,50	45,7927
389,00	45,7835
389,50	45,7236
390,00	45,6622
390,50	45,6140
391,00	45,5825
391,50	45,5590
392,00	45,5481
392,50	45,5208
393,00	45,4613
393,50	45,4117
394,00	45,4047
394,50	45,3675
395,00	45,3755
395,50	45,3529
396,00	45,3236
396,50	45,3350
397,00	45,3493
397,50	45,3580
398,00	45,3658
398,50	45,3430
399,00	45,3433
399,50	45,3074
400,00	45,3106
400,50	45,3343
401,00	45,2992
401,50	45,2693
402,00	45,2544
402,50	45,2295
403,00	45,2153
403,50	45,2299
404,00	45,2329
404,50	45,2062
405,00	45,1397
405,50	45,1478
406,00	45,1248
406,50	45,0923
407,00	45,0939
407,50	45,0881
408,00	45,0654
408,50	45,0483
409,00	45,0013
409,50	45,0201
410,00	44,9771
410,50	44,9778
411,00	44,9496
411,50	44,9160
412,00	44,9015
412,50	44,8850
413,00	44,8723
413,50	44,8771
414,00	44,8974
414,50	44,9015
415,00	44,8810
415,50	44,9162
416,00	44,8955
416,50	44,8725
417,00	44,8382
417,50	44,7918
418,00	44,7744
418,50	44,6248
419,00	44,5231
419,50	44,4223
420,00	44,2878
420,50	44,2108
421,00	44,1119
421,50	44,0238
422,00	43,9463
422,50	43,8821
423,00	43,8835
423,50	43,8704
424,00	43,8489
424,50	43,8127
425,00	43,8021
425,50	43,7818
426,00	43,7702
426,50	43,7557
427,00	43,7240
427,50	43,7203
428,00	43,6952
428,50	43,7129
429,00	43,7178
429,50	43,7007
430,00	43,7168
430,50	43,7072
431,00	43,7352
431,50	43,7421
432,00	43,7507
432,50	43,7571
433,00	43,7485
433,50	43,7834
434,00	43,7911
434,50	43,7805
435,00	43,7899
435,50	43,7739
436,00	43,7644
436,50	43,7536
437,00	43,7615
437,50	43,7698
438,00	43,7524
438,50	43,7432
439,00	43,7462
439,50	43,7545
440,00	43,7318
440,50	43,7361
441,00	43,7395
441,50	43,7366
442,00	43,7158
442,50	43,7075
443,00	43,7052
443,50	43,6870
444,00	43,6830
444,50	43,6839
445,00	43,6756
445,50	43,6748
446,00	43,6505
446,50	43,6501
447,00	43,6601
447,50	43,6696
448,00	43,6863
448,50	43,6840
449,00	43,6770
449,50	43,6880
450,00	43,6928
450,50	43,7125
451,00	43,7009
451,50	43,6839
452,00	43,6799
452,50	43,6651
453,00	43,6562
453,50	43,6619
454,00	43,6478
454,50	43,6237
455,00	43,6137
455,50	43,6200
456,00	43,6198
456,50	43,5982
457,00	43,6132
457,50	43,6155
458,00	43,6243
458,50	43,6180
459,00	43,5996
459,50	43,5951
460,00	43,5788
460,50	43,5770
461,00	43,5744
461,50	43,5565
462,00	43,5363
462,50	43,5133
463,00	43,4813
463,50	43,4595
464,00	43,4427
464,50	43,4189
465,00	43,4120
465,50	43,4038
466,00	43,3799
466,50	43,3625
467,00	43,3372
467,50	43,3310
468,00	43,3297
468,50	43,3031
469,00	43,3076
469,50	43,2857
470,00	43,2707
470,50	43,2602
471,00	43,2510
471,50	43,2592
472,00	43,2557
472,50	43,2655
473,00	43,2617
473,50	43,2615
474,00	43,2420
474,50	43,2230
475,00	43,2041
475,50	43,2073
476,00	43,1797
476,50	43,1659
477,00	43,1444
477,50	43,1488
478,00	43,1383
478,50	43,1363
479,00	43,1451
479,50	43,1375
480,00	43,1248
480,50	43,1416
481,00	43,1547
481,50	43,1362
482,00	43,1045
482,50	43,0913
483,00	43,0856
483,50	43,0751
484,00	43,1075
484,50	43,1114
485,00	43,1086
485,50	43,0970
486,00	43,1094
486,50	43,1414
487,00	43,1452
487,50	43,1562
488,00	43,1603
488,50	43,1297
489,00	43,1116
489,50	43,0915
490,00	43,0818
490,50	43,0816
491,00	43,0649
491,50	43,0581
492,00	43,0450
492,50	43,0417
493,00	43,0440
493,50	43,0412
494,00	43,0581
494,50	43,0625
495,00	43,0718
495,50	43,0973
496,00	43,1036
496,50	43,1152
497,00	43,1334
497,50	43,1335
498,00	43,1407
498,50	43,1389
499,00	43,1519
499,50	43,1325
500,00	43,1060
500,50	43,0895
501,00	43,0796
501,50	43,0476
502,00	43,0327
502,50	43,0398
503,00	43,0361
503,50	43,0355
504,00	43,0628
504,50	43,0609
505,00	43,0616
505,50	43,0486
506,00	43,0625
506,50	43,0745
507,00	43,0746
507,50	43,0600
508,00	43,0461
508,50	43,0170
509,00	43,0121
509,50	43,0059
510,00	43,0079
510,50	42,9996
511,00	42,9977
511,50	42,9891
512,00	42,9925
512,50	42,9988
513,00	42,9880
513,50	42,9827
514,00	42,9849
514,50	42,9955
515,00	43,0074
515,50	42,9918
516,00	42,9985
516,50	42,9717
517,00	42,9474
517,50	42,9625
518,00	42,9658
518,50	42,9688
519,00	42,9703
519,50	42,9496
520,00	42,9480
520,50	42,9334
521,00	42,9475
521,50	42,9617
522,00	42,9423
522,50	42,9341
523,00	42,9373
523,50	42,9092
524,00	42,9148
524,50	42,9338
525,00	42,9377
525,50	42,9382
526,00	42,9271
526,50	42,9153
527,00	42,9016
527,50	42,8676
528,00	42,8717
528,50	42,8415
529,00	42,8124
529,50	42,7543
530,00	42,7028
530,50	42,6676
531,00	42,6362
531,50	42,6198
532,00	42,5977
532,50	42,5523
533,00	42,5260
533,50	42,5028
534,00	42,5202
534,50	42,5428
535,00	42,5315
535,50	42,5266
536,00	42,5216
536,50	42,5142
537,00	42,5318
537,50	42,5364
538,00	42,5234
538,50	42,5066
539,00	42,4900
539,50	42,4864
540,00	42,4942
540,50	42,4782
541,00	42,4812
541,50	42,4625
542,00	42,4641
542,50	42,4697
543,00	42,4680
543,50	42,4710
544,00	42,4692
544,50	42,4666
545,00	42,4620
545,50	42,4760
546,00	42,4907
546,50	42,4891
547,00	42,4956
547,50	42,5031
548,00	42,5004
548,50	42,5152
549,00	42,5009
549,50	42,5097
550,00	42,5021
550,50	42,4754
551,00	42,4671
551,50	42,4266
552,00	42,4318
552,50	42,4299
553,00	42,4132
553,50	42,4185
554,00	42,4162
554,50	42,3920
555,00	42,4093
555,50	42,4049
556,00	42,4327
556,50	42,4115
557,00	42,3731
557,50	42,3328
558,00	42,3143
558,50	42,2902
559,00	42,3063
559,50	42,2738
560,00	42,2756
560,50	42,2420
561,00	42,2258
561,50	42,2193
562,00	42,2279
562,50	42,2419
563,00	42,2537
563,50	42,2426
564,00	42,2411
564,50	42,2008
565,00	42,1969
565,50	42,1878
566,00	42,1831
566,50	42,1662
567,00	42,1606
567,50	42,1326
568,00	42,1098
568,50	42,1077
569,00	42,1051
569,50	42,1114
570,00	42,1090
570,50	42,1202
571,00	42,1394
571,50	42,1192
572,00	42,1254
572,50	42,1167
573,00	42,1107
573,50	42,1306
574,00	42,1149
574,50	42,1182
575,00	42,1174
575,50	42,1092
576,00	42,1167
576,50	42,1126
577,00	42,1139
577,50	42,1126
578,00	42,1074
578,50	42,1045
579,00	42,1046
579,50	42,0874
580,00	42,0871
580,50	42,0742
581,00	42,0857
581,50	42,1035
582,00	42,1115
582,50	42,1199
583,00	42,1180
583,50	42,1201
584,00	42,1548
584,50	42,1677
585,00	42,1880
585,50	42,1937
586,00	42,1961
586,50	42,1989
587,00	42,2042
587,50	42,2371
588,00	42,2478
588,50	42,2438
589,00	42,2557
589,50	42,2494
590,00	42,2503
590,50	42,2792
591,00	42,2741
591,50	42,2643
592,00	42,2500
592,50	42,2489
593,00	42,2586
593,50	42,2478
594,00	42,2514
594,50	42,2598
595,00	42,2306
595,50	42,2400
596,00	42,2444
596,50	42,2548
597,00	42,2687
597,50	42,2455
598,00	42,2449
598,50	42,2395
599,00	42,2274
599,50	42,2276
600,00	42,2243
