"pen_argset_C_BottomSurface_centre - Storage 123036"
"Wavelength nm."	"R%"
185,00	404,9695
185,50	352,1688
186,00	298,7627
186,50	245,4328
187,00	197,8721
187,50	147,4774
188,00	118,2405
188,50	119,9594
189,00	123,1053
189,50	121,3828
190,00	121,0772
190,50	120,6662
191,00	121,1590
191,50	115,3509
192,00	112,5254
192,50	110,4806
193,00	105,7753
193,50	102,5198
194,00	99,4169
194,50	99,4945
195,00	99,0158
195,50	98,4584
196,00	96,4010
196,50	94,2963
197,00	94,5925
197,50	94,7729
198,00	93,2816
198,50	94,1087
199,00	92,3918
199,50	91,1942
200,00	89,4637
200,50	88,9607
201,00	88,8499
201,50	88,1880
202,00	87,1018
202,50	86,1842
203,00	84,9663
203,50	83,4948
204,00	82,9319
204,50	81,9052
205,00	81,7119
205,50	80,5731
206,00	79,6428
206,50	79,8484
207,00	78,8700
207,50	78,7716
208,00	78,3187
208,50	77,5953
209,00	77,0917
209,50	76,6495
210,00	76,4913
210,50	75,5286
211,00	73,7108
211,50	72,9715
212,00	71,8695
212,50	70,8689
213,00	70,2363
213,50	69,3030
214,00	68,1701
214,50	67,0501
215,00	66,4961
215,50	65,9302
216,00	65,2442
216,50	64,6930
217,00	63,9801
217,50	63,1837
218,00	62,5124
218,50	61,8112
219,00	61,3599
219,50	60,7513
220,00	60,4337
220,50	60,0164
221,00	59,4616
221,50	59,2719
222,00	58,8215
222,50	58,4720
223,00	58,3263
223,50	57,8117
224,00	57,2038
224,50	56,6609
225,00	56,0364
225,50	55,5046
226,00	54,9494
226,50	54,5804
227,00	54,0059
227,50	53,5161
228,00	53,2697
228,50	53,0306
229,00	52,7221
229,50	52,5254
230,00	52,3647
230,50	52,3024
231,00	52,1136
231,50	51,9354
232,00	51,6363
232,50	51,2874
233,00	51,1385
233,50	50,9413
234,00	50,6851
234,50	50,3179
235,00	50,1812
235,50	50,0046
236,00	49,9524
236,50	49,8791
237,00	49,8453
237,50	49,6431
238,00	49,6607
238,50	49,5878
239,00	49,5442
239,50	49,3291
240,00	49,1366
240,50	49,0926
241,00	48,9391
241,50	48,8823
242,00	48,8027
242,50	48,6579
243,00	48,6913
243,50	48,7195
244,00	48,7747
244,50	48,8806
245,00	48,7838
245,50	48,7649
246,00	48,6884
246,50	48,6682
247,00	48,7049
247,50	48,6484
248,00	48,6933
248,50	48,5878
249,00	48,5135
249,50	48,5260
250,00	48,6185
250,50	48,6590
251,00	48,7064
251,50	48,7411
252,00	48,7926
252,50	48,7570
253,00	48,9107
253,50	49,1126
254,00	49,2604
254,50	49,3367
255,00	49,4225
255,50	49,5409
256,00	49,6443
256,50	49,7092
257,00	49,7477
257,50	49,7713
258,00	49,7239
258,50	49,6637
259,00	49,7305
259,50	49,8136
260,00	49,7710
260,50	49,7868
261,00	49,8233
261,50	49,8918
262,00	49,9418
262,50	49,9388
263,00	50,0187
263,50	49,9994
264,00	49,9856
264,50	50,0678
265,00	50,0342
265,50	50,0475
266,00	50,1547
266,50	50,1019
267,00	50,1686
267,50	50,2055
268,00	50,1921
268,50	50,1810
269,00	50,0937
269,50	50,1120
270,00	50,0708
270,50	49,9766
271,00	49,9635
271,50	49,9092
272,00	49,9030
272,50	49,8079
273,00	49,8172
273,50	49,8112
274,00	49,7777
274,50	49,7345
275,00	49,7466
275,50	49,6967
276,00	49,7090
276,50	49,6559
277,00	49,6521
277,50	49,5435
278,00	49,5911
278,50	49,5798
279,00	49,5295
279,50	49,4262
280,00	49,3831
280,50	49,3463
281,00	49,2853
281,50	49,2307
282,00	49,2135
282,50	49,1784
283,00	49,0810
283,50	49,1244
284,00	49,2463
284,50	49,2581
285,00	49,1924
285,50	49,1869
286,00	49,2070
286,50	49,1535
287,00	49,1150
287,50	49,0808
288,00	49,0774
288,50	48,8582
289,00	48,8160
289,50	48,8716
290,00	48,7554
290,50	48,7266
291,00	48,6681
291,50	48,5587
292,00	48,6075
292,50	48,5105
293,00	48,5453
293,50	48,5853
294,00	48,5566
294,50	48,5941
295,00	48,6280
295,50	48,6961
296,00	48,6953
296,50	48,6572
297,00	48,5908
297,50	48,5616
298,00	48,5042
298,50	48,3731
299,00	48,3026
299,50	48,1837
300,00	48,1587
300,50	48,1382
301,00	48,1093
301,50	48,1757
302,00	48,1213
302,50	48,1028
303,00	48,1220
303,50	48,0556
304,00	48,0426
304,50	47,9605
305,00	48,0063
305,50	47,9220
306,00	47,8580
306,50	47,9426
307,00	47,9520
307,50	47,9027
308,00	48,0278
308,50	48,2935
309,00	48,4528
309,50	48,5322
310,00	48,6870
310,50	48,8719
311,00	48,9914
311,50	49,0978
312,00	49,2840
312,50	49,4101
313,00	49,3293
313,50	49,3860
314,00	49,3241
314,50	49,3072
315,00	49,3063
315,50	49,3206
316,00	49,3508
316,50	49,2737
317,00	49,2754
317,50	49,2611
318,00	49,2925
318,50	49,3950
319,00	49,4940
319,50	49,4835
320,00	49,5144
320,50	49,4952
321,00	49,5988
321,50	49,5437
322,00	49,5749
322,50	49,4964
323,00	49,5233
323,50	49,5091
324,00	49,4950
324,50	49,4341
325,00	49,4007
325,50	49,3200
326,00	49,3072
326,50	49,2760
327,00	49,2878
327,50	49,1574
328,00	49,0624
328,50	49,1351
329,00	49,0703
329,50	49,0752
330,00	49,0573
330,50	48,9995
331,00	48,9934
331,50	48,9450
332,00	48,9770
332,50	49,0059
333,00	48,9352
333,50	48,8832
334,00	48,8685
334,50	48,8599
335,00	48,8542
335,50	48,7773
336,00	48,7631
336,50	48,7406
337,00	48,6980
337,50	48,6321
338,00	48,7712
338,50	48,7313
339,00	48,7363
339,50	48,7025
340,00	48,7208
340,50	48,6974
341,00	48,6790
341,50	48,7031
342,00	48,6849
342,50	48,4999
343,00	48,4874
343,50	48,4389
344,00	48,4095
344,50	48,3621
345,00	48,3859
345,50	48,3881
346,00	48,2966
346,50	48,2474
347,00	48,2910
347,50	48,2760
348,00	48,2896
348,50	48,2873
349,00	48,2690
349,50	48,2091
350,00	48,1902
350,50	48,2022
351,00	48,2212
351,50	48,1740
352,00	48,1449
352,50	48,1018
353,00	48,1217
353,50	48,1541
354,00	48,1110
354,50	48,0550
355,00	48,0302
355,50	47,9138
356,00	47,8633
356,50	47,8497
357,00	47,7391
357,50	47,7630
358,00	47,6063
358,50	47,7707
359,00	47,9070
359,50	48,0900
360,00	48,2500
360,50	48,4241
361,00	48,5562
361,50	48,7860
362,00	48,8765
362,50	49,0978
363,00	49,1462
363,50	49,1189
364,00	49,0640
364,50	49,1218
365,00	49,1596
365,50	49,1528
366,00	49,1048
366,50	49,0284
367,00	49,0727
367,50	48,9924
368,00	48,9976
368,50	49,0152
369,00	48,9523
369,50	48,9020
370,00	48,8770
370,50	48,9057
371,00	48,9612
371,50	48,9098
372,00	48,8735
372,50	48,8283
373,00	48,7565
373,50	48,7672
374,00	48,7396
374,50	48,7115
375,00	48,6110
375,50	48,5626
376,00	48,4758
376,50	48,4312
377,00	48,3678
377,50	48,2458
378,00	48,0889
378,50	47,9170
379,00	47,7595
379,50	47,5774
380,00	47,3729
380,50	47,2260
381,00	47,0743
381,50	46,8947
382,00	46,7556
382,50	46,6103
383,00	46,4632
383,50	46,2934
384,00	46,1907
384,50	46,0608
385,00	45,9187
385,50	45,7577
386,00	45,6448
386,50	45,5729
387,00	45,4932
387,50	45,4286
388,00	45,3907
388,50	45,3394
389,00	45,3107
389,50	45,2785
390,00	45,2516
390,50	45,2403
391,00	45,1759
391,50	45,1651
392,00	45,1276
392,50	45,0677
393,00	45,0320
393,50	44,9761
394,00	44,9456
394,50	44,9246
395,00	44,8712
395,50	44,8525
396,00	44,8043
396,50	44,8184
397,00	44,8270
397,50	44,8266
398,00	44,8403
398,50	44,7981
399,00	44,7712
399,50	44,8003
400,00	44,8048
400,50	44,8234
401,00	44,7869
401,50	44,7531
402,00	44,7010
402,50	44,6953
403,00	44,6880
403,50	44,7250
404,00	44,6943
404,50	44,6512
405,00	44,6460
405,50	44,6421
406,00	44,6393
406,50	44,6627
407,00	44,6655
407,50	44,6814
408,00	44,6328
408,50	44,6391
409,00	44,6115
409,50	44,5892
410,00	44,5668
410,50	44,5692
411,00	44,5664
411,50	44,5192
412,00	44,4847
412,50	44,4799
413,00	44,4318
413,50	44,4421
414,00	44,4132
414,50	44,4155
415,00	44,3850
415,50	44,3558
416,00	44,3245
416,50	44,2924
417,00	44,2891
417,50	44,2705
418,00	44,2490
418,50	44,1388
419,00	44,0163
419,50	43,9296
420,00	43,8217
420,50	43,7501
421,00	43,6697
421,50	43,5494
422,00	43,4536
422,50	43,3772
423,00	43,3635
423,50	43,3447
424,00	43,3380
424,50	43,3144
425,00	43,2867
425,50	43,2731
426,00	43,2640
426,50	43,2603
427,00	43,2345
427,50	43,2532
428,00	43,2512
428,50	43,2502
429,00	43,2691
429,50	43,2780
430,00	43,2830
430,50	43,2673
431,00	43,2773
431,50	43,2989
432,00	43,3008
432,50	43,3109
433,00	43,2913
433,50	43,2859
434,00	43,2836
434,50	43,2691
435,00	43,2881
435,50	43,2888
436,00	43,2665
436,50	43,2620
437,00	43,2575
437,50	43,2723
438,00	43,2752
438,50	43,2724
439,00	43,2930
439,50	43,2886
440,00	43,2457
440,50	43,2858
441,00	43,2742
441,50	43,2619
442,00	43,2458
442,50	43,2335
443,00	43,2319
443,50	43,1970
444,00	43,1939
444,50	43,2279
445,00	43,1867
445,50	43,1866
446,00	43,2105
446,50	43,2031
447,00	43,2265
447,50	43,2241
448,00	43,2493
448,50	43,2474
449,00	43,2235
449,50	43,2304
450,00	43,2435
450,50	43,2484
451,00	43,2653
451,50	43,2528
452,00	43,2584
452,50	43,2619
453,00	43,2692
453,50	43,2630
454,00	43,2629
454,50	43,2489
455,00	43,2386
455,50	43,2103
456,00	43,1898
456,50	43,1816
457,00	43,1655
457,50	43,1580
458,00	43,1864
458,50	43,2030
459,00	43,1935
459,50	43,1853
460,00	43,1980
460,50	43,1874
461,00	43,1644
461,50	43,1715
462,00	43,1595
462,50	43,1359
463,00	43,0955
463,50	43,0583
464,00	43,0227
464,50	43,0133
465,00	43,0216
465,50	43,0327
466,00	43,0014
466,50	42,9786
467,00	42,9531
467,50	42,9346
468,00	42,9440
468,50	42,9481
469,00	42,9351
469,50	42,9184
470,00	42,9104
470,50	42,9139
471,00	42,9078
471,50	42,9158
472,00	42,9187
472,50	42,9295
473,00	42,9209
473,50	42,8988
474,00	42,8719
474,50	42,8440
475,00	42,8404
475,50	42,8302
476,00	42,8070
476,50	42,7952
477,00	42,7882
477,50	42,7895
478,00	42,8030
478,50	42,8245
479,00	42,8048
479,50	42,7872
480,00	42,7948
480,50	42,8046
481,00	42,8133
481,50	42,8103
482,00	42,7682
482,50	42,7565
483,00	42,7583
483,50	42,7758
484,00	42,7887
484,50	42,7846
485,00	42,7747
485,50	42,7730
486,00	42,7599
486,50	42,8044
487,00	42,8186
487,50	42,8067
488,00	42,8166
488,50	42,8038
489,00	42,8056
489,50	42,8162
490,00	42,8135
490,50	42,8080
491,00	42,7839
491,50	42,7678
492,00	42,7749
492,50	42,7652
493,00	42,7572
493,50	42,7570
494,00	42,7730
494,50	42,7760
495,00	42,7904
495,50	42,8010
496,00	42,7971
496,50	42,7835
497,00	42,8051
497,50	42,8185
498,00	42,8157
498,50	42,7903
499,00	42,7934
499,50	42,7800
500,00	42,7764
500,50	42,7852
501,00	42,7845
501,50	42,7689
502,00	42,7689
502,50	42,7755
503,00	42,7627
503,50	42,7451
504,00	42,7493
504,50	42,7455
505,00	42,7545
505,50	42,7492
506,00	42,7560
506,50	42,7424
507,00	42,7294
507,50	42,7348
508,00	42,7277
508,50	42,7360
509,00	42,7342
509,50	42,7089
510,00	42,7036
510,50	42,7020
511,00	42,7228
511,50	42,7093
512,00	42,7146
512,50	42,7282
513,00	42,7006
513,50	42,6918
514,00	42,7053
514,50	42,7197
515,00	42,7208
515,50	42,6960
516,00	42,6825
516,50	42,6605
517,00	42,6472
517,50	42,6565
518,00	42,6628
518,50	42,6477
519,00	42,6380
519,50	42,6134
520,00	42,6205
520,50	42,6381
521,00	42,6516
521,50	42,6421
522,00	42,6350
522,50	42,6422
523,00	42,6466
523,50	42,6383
524,00	42,6494
524,50	42,6460
525,00	42,6598
525,50	42,6509
526,00	42,6380
526,50	42,6258
527,00	42,6188
527,50	42,5884
528,00	42,5835
528,50	42,5342
529,00	42,4992
529,50	42,4366
530,00	42,3923
530,50	42,3743
531,00	42,3313
531,50	42,3004
532,00	42,2654
532,50	42,2145
533,00	42,2126
533,50	42,2239
534,00	42,2411
534,50	42,2643
535,00	42,2495
535,50	42,2537
536,00	42,2292
536,50	42,2403
537,00	42,2456
537,50	42,2593
538,00	42,2336
538,50	42,2055
539,00	42,1912
539,50	42,2058
540,00	42,2133
540,50	42,1902
541,00	42,1802
541,50	42,1816
542,00	42,1605
542,50	42,1584
543,00	42,1797
543,50	42,1840
544,00	42,1888
544,50	42,1798
545,00	42,2028
545,50	42,2044
546,00	42,2024
546,50	42,1983
547,00	42,2071
547,50	42,1997
548,00	42,2022
548,50	42,2088
549,00	42,2086
549,50	42,2149
550,00	42,2166
550,50	42,2135
551,00	42,2260
551,50	42,1929
552,00	42,2041
552,50	42,1918
553,00	42,1620
553,50	42,1709
554,00	42,1473
554,50	42,1482
555,00	42,1520
555,50	42,1465
556,00	42,1523
556,50	42,1353
557,00	42,0987
557,50	42,0776
558,00	42,0521
558,50	42,0405
559,00	42,0409
559,50	42,0339
560,00	42,0336
560,50	42,0126
561,00	42,0060
561,50	42,0112
562,00	42,0182
562,50	42,0218
563,00	42,0289
563,50	41,9982
564,00	41,9981
564,50	41,9713
565,00	41,9702
565,50	41,9552
566,00	41,9482
566,50	41,9475
567,00	41,9493
567,50	41,9416
568,00	41,9485
568,50	41,9110
569,00	41,9059
569,50	41,9172
570,00	41,9133
570,50	41,9249
571,00	41,9142
571,50	41,8800
572,00	41,8916
572,50	41,8848
573,00	41,9001
573,50	41,9094
574,00	41,9011
574,50	41,8965
575,00	41,8871
575,50	41,8788
576,00	41,8873
576,50	41,8838
577,00	41,8769
577,50	41,8874
578,00	41,8714
578,50	41,8608
579,00	41,8653
579,50	41,8642
580,00	41,8637
580,50	41,8714
581,00	41,8546
581,50	41,8796
582,00	41,8759
582,50	41,8818
583,00	41,8844
583,50	41,8764
584,00	41,9041
584,50	41,9153
585,00	41,9260
585,50	41,9395
586,00	41,9380
586,50	41,9345
587,00	41,9667
587,50	42,0016
588,00	42,0216
588,50	42,0358
589,00	42,0410
589,50	42,0401
590,00	42,0418
590,50	42,0645
591,00	42,0754
591,50	42,0625
592,00	42,0606
592,50	42,0583
593,00	42,0418
593,50	42,0361
594,00	42,0340
594,50	42,0570
595,00	42,0279
595,50	42,0274
596,00	42,0100
596,50	42,0077
597,00	42,0166
597,50	41,9941
598,00	41,9839
598,50	41,9663
599,00	41,9255
599,50	41,9111
600,00	41,8897
