"pen_argset_B_centre_front - Storage 130627"
"Wavelength nm."	"R%"
185,00	383,2603
185,50	335,8912
186,00	288,6380
186,50	232,8939
187,00	184,3209
187,50	130,4894
188,00	128,4529
188,50	134,1146
189,00	131,9577
189,50	129,1293
190,00	121,4459
190,50	113,9940
191,00	113,9257
191,50	107,3009
192,00	105,7229
192,50	104,7298
193,00	100,7905
193,50	95,0893
194,00	92,0594
194,50	92,0760
195,00	90,1316
195,50	91,6430
196,00	90,0167
196,50	88,3069
197,00	87,3753
197,50	88,1425
198,00	86,9131
198,50	87,8078
199,00	86,2687
199,50	85,5420
200,00	83,2301
200,50	82,4890
201,00	82,7673
201,50	82,9760
202,00	81,1781
202,50	80,3266
203,00	79,4778
203,50	78,7492
204,00	78,4936
204,50	77,6691
205,00	78,3110
205,50	77,7172
206,00	76,5075
206,50	76,4733
207,00	75,8847
207,50	75,3881
208,00	74,7202
208,50	73,9737
209,00	73,5929
209,50	72,3557
210,00	71,6463
210,50	71,0734
211,00	69,9790
211,50	68,7384
212,00	67,8347
212,50	66,8417
213,00	66,3604
213,50	65,2873
214,00	64,6744
214,50	63,7930
215,00	63,1014
215,50	62,4865
216,00	62,2942
216,50	61,8012
217,00	61,2478
217,50	60,7281
218,00	60,2585
218,50	59,4551
219,00	59,0216
219,50	58,7668
220,00	58,3278
220,50	57,8427
221,00	57,4352
221,50	57,2229
222,00	57,0135
222,50	56,6152
223,00	56,4552
223,50	56,0069
224,00	55,3611
224,50	55,1095
225,00	54,7119
225,50	54,1591
226,00	53,7146
226,50	53,1687
227,00	52,7301
227,50	52,3556
228,00	52,0737
228,50	51,9248
229,00	51,5074
229,50	51,1906
230,00	51,0025
230,50	50,8893
231,00	50,7370
231,50	50,5253
232,00	50,1944
232,50	49,9349
233,00	49,6421
233,50	49,4750
234,00	49,3472
234,50	49,1998
235,00	49,1549
235,50	48,9836
236,00	48,9329
236,50	48,9353
237,00	48,8520
237,50	48,7805
238,00	48,7046
238,50	48,5927
239,00	48,4888
239,50	48,1868
240,00	48,0329
240,50	47,9587
241,00	47,7971
241,50	47,8220
242,00	47,7223
242,50	47,7735
243,00	47,8167
243,50	47,6631
244,00	47,7162
244,50	47,7677
245,00	47,6817
245,50	47,7242
246,00	47,6901
246,50	47,7456
247,00	47,7114
247,50	47,5757
248,00	47,7761
248,50	47,8067
249,00	47,7465
249,50	47,8535
250,00	47,8464
250,50	47,8702
251,00	47,8422
251,50	47,8759
252,00	47,9406
252,50	47,8743
253,00	47,9886
253,50	48,1702
254,00	48,1357
254,50	48,2208
255,00	48,1698
255,50	48,2855
256,00	48,3228
256,50	48,4294
257,00	48,5318
257,50	48,5364
258,00	48,5793
258,50	48,6397
259,00	48,7027
259,50	48,8217
260,00	48,8943
260,50	48,9492
261,00	49,0258
261,50	49,0632
262,00	49,1109
262,50	49,0914
263,00	49,2350
263,50	49,2976
264,00	49,3392
264,50	49,2825
265,00	49,2908
265,50	49,2689
266,00	49,3187
266,50	49,2563
267,00	49,1781
267,50	49,0802
268,00	49,0319
268,50	48,9751
269,00	48,9188
269,50	48,9347
270,00	48,9319
270,50	48,8191
271,00	48,7681
271,50	48,7699
272,00	48,7846
272,50	48,6889
273,00	48,7404
273,50	48,7447
274,00	48,7187
274,50	48,6414
275,00	48,6841
275,50	48,7739
276,00	48,7991
276,50	48,7160
277,00	48,7227
277,50	48,6623
278,00	48,6607
278,50	48,6394
279,00	48,5749
279,50	48,5067
280,00	48,4541
280,50	48,4687
281,00	48,4632
281,50	48,4485
282,00	48,3647
282,50	48,3614
283,00	48,2982
283,50	48,3081
284,00	48,3425
284,50	48,2212
285,00	48,1206
285,50	48,0963
286,00	48,0633
286,50	48,0031
287,00	47,8623
287,50	47,8018
288,00	47,8388
288,50	47,7784
289,00	47,8572
289,50	47,9250
290,00	47,8593
290,50	47,8509
291,00	47,9099
291,50	47,9517
292,00	47,9241
292,50	47,8482
293,00	47,8696
293,50	47,8233
294,00	47,7661
294,50	47,7867
295,00	47,7385
295,50	47,6854
296,00	47,6767
296,50	47,6824
297,00	47,6591
297,50	47,5597
298,00	47,5182
298,50	47,4140
299,00	47,4906
299,50	47,4877
300,00	47,5159
300,50	47,5496
301,00	47,4973
301,50	47,5857
302,00	47,5679
302,50	47,5880
303,00	47,6860
303,50	47,5710
304,00	47,5098
304,50	47,4420
305,00	47,4116
305,50	47,3762
306,00	47,2694
306,50	47,3442
307,00	47,3223
307,50	47,3137
308,00	47,3726
308,50	47,6201
309,00	47,8657
309,50	48,0255
310,00	48,1964
310,50	48,3811
311,00	48,5487
311,50	48,5834
312,00	48,6819
312,50	48,7714
313,00	48,6621
313,50	48,6172
314,00	48,6457
314,50	48,6950
315,00	48,6688
315,50	48,5636
316,00	48,7201
316,50	48,6816
317,00	48,7406
317,50	48,8215
318,00	48,7838
318,50	48,7509
319,00	48,7823
319,50	48,8011
320,00	48,7100
320,50	48,6143
321,00	48,6801
321,50	48,6577
322,00	48,6388
322,50	48,6504
323,00	48,6054
323,50	48,5194
324,00	48,4878
324,50	48,5720
325,00	48,5698
325,50	48,4885
326,00	48,4052
326,50	48,2777
327,00	48,2781
327,50	48,2654
328,00	48,2815
328,50	48,2556
329,00	48,2602
329,50	48,2572
330,00	48,2596
330,50	48,2553
331,00	48,3750
331,50	48,3529
332,00	48,3931
332,50	48,4215
333,00	48,4412
333,50	48,4187
334,00	48,3768
334,50	48,3173
335,00	48,2705
335,50	48,2311
336,00	48,2158
336,50	48,1459
337,00	48,1066
337,50	48,0452
338,00	48,0461
338,50	48,0404
339,00	48,1612
339,50	48,1726
340,00	48,1536
340,50	48,1087
341,00	48,1128
341,50	48,0614
342,00	48,0518
342,50	47,9939
343,00	47,9662
343,50	47,8879
344,00	47,8544
344,50	47,8214
345,00	47,8186
345,50	47,8246
346,00	47,8400
346,50	47,7949
347,00	47,8011
347,50	47,7949
348,00	47,7385
348,50	47,7435
349,00	47,7124
349,50	47,6588
350,00	47,6463
350,50	47,5812
351,00	47,6080
351,50	47,5786
352,00	47,5464
352,50	47,5811
353,00	47,5692
353,50	47,5817
354,00	47,5430
354,50	47,5039
355,00	47,5232
355,50	47,4149
356,00	47,3638
356,50	47,3611
357,00	47,2309
357,50	47,2001
358,00	47,0732
358,50	47,2832
359,00	47,4503
359,50	47,6049
360,00	47,8080
360,50	48,0500
361,00	48,1873
361,50	48,3957
362,00	48,5604
362,50	48,8295
363,00	48,8286
363,50	48,7013
364,00	48,6207
364,50	48,6240
365,00	48,5801
365,50	48,5950
366,00	48,5637
366,50	48,4849
367,00	48,4771
367,50	48,4501
368,00	48,4997
368,50	48,5528
369,00	48,5155
369,50	48,4918
370,00	48,4265
370,50	48,4288
371,00	48,4613
371,50	48,4122
372,00	48,3714
372,50	48,3196
373,00	48,2791
373,50	48,2995
374,00	48,2616
374,50	48,2725
375,00	48,1936
375,50	48,1619
376,00	48,0966
376,50	48,0321
377,00	48,0013
377,50	47,8515
378,00	47,6711
378,50	47,5260
379,00	47,3533
379,50	47,2072
380,00	47,0451
380,50	46,8966
381,00	46,7668
381,50	46,5726
382,00	46,4941
382,50	46,3986
383,00	46,2220
383,50	46,0754
384,00	45,9874
384,50	45,8347
385,00	45,7121
385,50	45,5653
386,00	45,5019
386,50	45,3826
387,00	45,2731
387,50	45,3000
388,00	45,2869
388,50	45,2681
389,00	45,2822
389,50	45,2740
390,00	45,2418
390,50	45,1965
391,00	45,1635
391,50	45,1732
392,00	45,0990
392,50	45,0723
393,00	44,9898
393,50	44,9413
394,00	44,9294
394,50	44,9287
395,00	44,9241
395,50	44,9323
396,00	44,8734
396,50	44,8803
397,00	44,8657
397,50	44,9058
398,00	44,9104
398,50	44,8504
399,00	44,8539
399,50	44,8692
400,00	44,8680
400,50	44,8801
401,00	44,8651
401,50	44,8647
402,00	44,8237
402,50	44,8321
403,00	44,8148
403,50	44,8020
404,00	44,7508
404,50	44,7583
405,00	44,7817
405,50	44,7866
406,00	44,7534
406,50	44,7388
407,00	44,7159
407,50	44,7549
408,00	44,7429
408,50	44,7381
409,00	44,6816
409,50	44,6408
410,00	44,6077
410,50	44,6224
411,00	44,5966
411,50	44,5842
412,00	44,5237
412,50	44,4975
413,00	44,5044
413,50	44,4728
414,00	44,4708
414,50	44,4630
415,00	44,4250
415,50	44,4558
416,00	44,4005
416,50	44,3875
417,00	44,3526
417,50	44,3373
418,00	44,3350
418,50	44,2087
419,00	44,0876
419,50	44,0024
420,00	43,8622
420,50	43,7821
421,00	43,7070
421,50	43,6320
422,00	43,5182
422,50	43,4333
423,00	43,4302
423,50	43,4243
424,00	43,4075
424,50	43,3996
425,00	43,3809
425,50	43,3509
426,00	43,3251
426,50	43,3161
427,00	43,2929
427,50	43,3089
428,00	43,3046
428,50	43,3150
429,00	43,3292
429,50	43,3496
430,00	43,3479
430,50	43,3609
431,00	43,3448
431,50	43,3645
432,00	43,3687
432,50	43,3637
433,00	43,3435
433,50	43,3368
434,00	43,3421
434,50	43,3443
435,00	43,3535
435,50	43,3729
436,00	43,3717
436,50	43,3715
437,00	43,3675
437,50	43,3624
438,00	43,3746
438,50	43,3530
439,00	43,3625
439,50	43,3425
440,00	43,3204
440,50	43,3409
441,00	43,3165
441,50	43,3193
442,00	43,3121
442,50	43,2906
443,00	43,2894
443,50	43,2607
444,00	43,2750
444,50	43,2828
445,00	43,2652
445,50	43,2576
446,00	43,2606
446,50	43,2645
447,00	43,2859
447,50	43,2884
448,00	43,3042
448,50	43,2878
449,00	43,2784
449,50	43,2882
450,00	43,2823
450,50	43,2821
451,00	43,2887
451,50	43,2923
452,00	43,3124
452,50	43,3307
453,00	43,3464
453,50	43,3354
454,00	43,3234
454,50	43,3428
455,00	43,3445
455,50	43,3369
456,00	43,2969
456,50	43,2524
457,00	43,2296
457,50	43,2099
458,00	43,2090
458,50	43,2201
459,00	43,1941
459,50	43,1860
460,00	43,1777
460,50	43,1838
461,00	43,1965
461,50	43,1850
462,00	43,1893
462,50	43,1877
463,00	43,1525
463,50	43,1422
464,00	43,1399
464,50	43,1351
465,00	43,1234
465,50	43,1159
466,00	43,0995
466,50	43,0761
467,00	43,0659
467,50	43,0463
468,00	43,0400
468,50	43,0271
469,00	43,0142
469,50	43,0334
470,00	43,0293
470,50	43,0262
471,00	43,0176
471,50	43,0169
472,00	42,9990
472,50	42,9997
473,00	42,9541
473,50	42,9450
474,00	42,8998
474,50	42,8791
475,00	42,8754
475,50	42,8644
476,00	42,8513
476,50	42,8612
477,00	42,8626
477,50	42,8951
478,00	42,8871
478,50	42,8975
479,00	42,8843
479,50	42,8666
480,00	42,8615
480,50	42,8617
481,00	42,8566
481,50	42,8383
482,00	42,8163
482,50	42,8107
483,00	42,8222
483,50	42,8116
484,00	42,8445
484,50	42,8550
485,00	42,8454
485,50	42,8537
486,00	42,8626
486,50	42,8836
487,00	42,8994
487,50	42,8995
488,00	42,9228
488,50	42,9013
489,00	42,8936
489,50	42,8952
490,00	42,8713
490,50	42,8516
491,00	42,8363
491,50	42,8323
492,00	42,8192
492,50	42,8095
493,00	42,8012
493,50	42,7942
494,00	42,8048
494,50	42,8392
495,00	42,8620
495,50	42,8607
496,00	42,8497
496,50	42,8496
497,00	42,8905
497,50	42,8895
498,00	42,8997
498,50	42,8830
499,00	42,8774
499,50	42,8705
500,00	42,8845
500,50	42,8721
501,00	42,8479
501,50	42,8111
502,00	42,8068
502,50	42,8081
503,00	42,8274
503,50	42,8123
504,00	42,8180
504,50	42,8086
505,00	42,8136
505,50	42,8216
506,00	42,8275
506,50	42,8319
507,00	42,8353
507,50	42,7787
508,00	42,7814
508,50	42,7481
509,00	42,7373
509,50	42,7414
510,00	42,7280
510,50	42,7240
511,00	42,7287
511,50	42,6967
512,00	42,7448
512,50	42,7276
513,00	42,7372
513,50	42,7265
514,00	42,7167
514,50	42,7281
515,00	42,7316
515,50	42,7167
516,00	42,7238
516,50	42,7192
517,00	42,7108
517,50	42,7072
518,00	42,7149
518,50	42,7368
519,00	42,7211
519,50	42,6823
520,00	42,6889
520,50	42,6839
521,00	42,6786
521,50	42,7002
522,00	42,6981
522,50	42,7251
523,00	42,7217
523,50	42,7394
524,00	42,7696
524,50	42,7660
525,00	42,7588
525,50	42,7268
526,00	42,7021
526,50	42,6721
527,00	42,6282
527,50	42,5951
528,00	42,5669
528,50	42,5056
529,00	42,4742
529,50	42,4359
530,00	42,3904
530,50	42,3540
531,00	42,3148
531,50	42,2868
532,00	42,2341
532,50	42,2132
533,00	42,2338
533,50	42,2131
534,00	42,2021
534,50	42,2144
535,00	42,2205
535,50	42,2502
536,00	42,2577
536,50	42,2889
537,00	42,2865
537,50	42,2557
538,00	42,2817
538,50	42,2811
539,00	42,2857
539,50	42,2834
540,00	42,2766
540,50	42,2550
541,00	42,2211
541,50	42,2146
542,00	42,2204
542,50	42,2130
543,00	42,2193
543,50	42,2273
544,00	42,2329
544,50	42,2352
545,00	42,2316
545,50	42,2623
546,00	42,2761
546,50	42,2653
547,00	42,2419
547,50	42,2357
548,00	42,2297
548,50	42,2206
549,00	42,1853
549,50	42,2011
550,00	42,1842
550,50	42,1639
551,00	42,1772
551,50	42,1657
552,00	42,1879
552,50	42,1810
553,00	42,1873
553,50	42,2110
554,00	42,1845
554,50	42,1712
555,00	42,1845
555,50	42,1759
556,00	42,1675
556,50	42,1486
557,00	42,1001
557,50	42,0856
558,00	42,0628
558,50	42,0707
559,00	42,0765
559,50	42,0482
560,00	42,0470
560,50	42,0344
561,00	42,0292
561,50	42,0611
562,00	42,0435
562,50	42,0509
563,00	42,0365
563,50	42,0161
564,00	42,0095
564,50	41,9769
565,00	41,9936
565,50	41,9725
566,00	41,9440
566,50	41,9247
567,00	41,9246
567,50	41,9120
568,00	41,9221
568,50	41,8991
569,00	41,9000
569,50	41,8970
570,00	41,9013
570,50	41,9180
571,00	41,9312
571,50	41,9258
572,00	41,9533
572,50	41,9314
573,00	41,9524
573,50	41,9652
574,00	41,9390
574,50	41,9248
575,00	41,9349
575,50	41,9235
576,00	41,9168
576,50	41,9047
577,00	41,9274
577,50	41,9429
578,00	41,9471
578,50	41,9606
579,00	41,9839
579,50	41,9584
580,00	41,9576
580,50	41,9696
581,00	41,9495
581,50	41,9475
582,00	41,9496
582,50	41,9452
583,00	41,9490
583,50	41,9627
584,00	42,0074
584,50	42,0203
585,00	42,0196
585,50	42,0313
586,00	42,0474
586,50	42,0580
587,00	42,0688
587,50	42,0995
588,00	42,0890
588,50	42,0908
589,00	42,0989
589,50	42,1024
590,00	42,1167
590,50	42,1357
591,00	42,1141
591,50	42,1211
592,00	42,1040
592,50	42,1059
593,00	42,0822
593,50	42,0866
594,00	42,0800
594,50	42,0739
595,00	42,0437
595,50	42,0552
596,00	42,0375
596,50	42,0456
597,00	42,0511
597,50	42,0685
598,00	42,0668
598,50	42,0744
599,00	42,0804
599,50	42,0851
600,00	42,0846
