"pen_argset_A_back_corner1_01_pressed - Storage 113026"
"Wavelength nm."	"R%"
185,00	247,5045
185,50	224,2146
186,00	197,7650
186,50	175,6400
187,00	154,3392
187,50	130,8018
188,00	133,3699
188,50	128,9682
189,00	126,6152
189,50	117,0518
190,00	117,2243
190,50	119,6590
191,00	116,3207
191,50	112,9200
192,00	111,6269
192,50	109,1445
193,00	106,9304
193,50	102,5194
194,00	100,0721
194,50	98,3043
195,00	97,2840
195,50	98,4453
196,00	96,0985
196,50	95,2771
197,00	95,0255
197,50	95,7674
198,00	95,6687
198,50	94,8623
199,00	93,7666
199,50	92,0702
200,00	90,1311
200,50	90,5436
201,00	89,9521
201,50	89,7346
202,00	87,6384
202,50	86,7604
203,00	86,5017
203,50	85,3278
204,00	84,9531
204,50	84,1303
205,00	83,6582
205,50	81,8583
206,00	80,5591
206,50	81,0161
207,00	79,8689
207,50	79,4479
208,00	78,9299
208,50	77,8479
209,00	77,1950
209,50	76,6073
210,00	76,7111
210,50	75,8603
211,00	74,1375
211,50	73,4497
212,00	72,6618
212,50	71,5909
213,00	71,1275
213,50	69,9458
214,00	68,7888
214,50	67,8735
215,00	67,6087
215,50	67,0888
216,00	66,5389
216,50	65,8407
217,00	65,2555
217,50	64,4655
218,00	64,0582
218,50	63,3741
219,00	62,5864
219,50	61,6950
220,00	61,4417
220,50	60,9974
221,00	60,3403
221,50	59,7754
222,00	59,4381
222,50	58,9101
223,00	58,6710
223,50	58,3337
224,00	57,8027
224,50	57,3532
225,00	56,7027
225,50	56,3146
226,00	55,9747
226,50	55,4718
227,00	55,0942
227,50	54,5453
228,00	54,2404
228,50	54,0591
229,00	53,7466
229,50	53,4722
230,00	53,2782
230,50	53,2085
231,00	53,0554
231,50	52,7854
232,00	52,4826
232,50	52,2442
233,00	52,0004
233,50	51,6684
234,00	51,4537
234,50	51,1429
235,00	50,8724
235,50	50,7426
236,00	50,6182
236,50	50,6809
237,00	50,5752
237,50	50,3838
238,00	50,3350
238,50	50,1965
239,00	50,1282
239,50	50,0254
240,00	49,8378
240,50	49,8110
241,00	49,6251
241,50	49,6235
242,00	49,6320
242,50	49,5946
243,00	49,6296
243,50	49,5695
244,00	49,5567
244,50	49,5549
245,00	49,3891
245,50	49,3563
246,00	49,2454
246,50	49,2031
247,00	49,1538
247,50	49,1298
248,00	49,2649
248,50	49,1931
249,00	49,1395
249,50	49,1582
250,00	49,2717
250,50	49,2671
251,00	49,3567
251,50	49,4370
252,00	49,4662
252,50	49,4630
253,00	49,4492
253,50	49,6164
254,00	49,8158
254,50	49,9008
255,00	50,0158
255,50	49,9783
256,00	49,9952
256,50	50,0610
257,00	50,0782
257,50	50,1942
258,00	50,2018
258,50	50,1306
259,00	50,1628
259,50	50,1547
260,00	50,2191
260,50	50,2121
261,00	50,2256
261,50	50,2775
262,00	50,3317
262,50	50,3230
263,00	50,4580
263,50	50,4793
264,00	50,4933
264,50	50,5293
265,00	50,6074
265,50	50,6812
266,00	50,6684
266,50	50,6591
267,00	50,6695
267,50	50,5528
268,00	50,5158
268,50	50,4901
269,00	50,4789
269,50	50,4550
270,00	50,3957
270,50	50,4290
271,00	50,3750
271,50	50,4505
272,00	50,3844
272,50	50,3273
273,00	50,3619
273,50	50,2942
274,00	50,2699
274,50	50,2276
275,00	50,2054
275,50	50,2076
276,00	50,1500
276,50	50,1993
277,00	50,1274
277,50	50,0421
278,00	49,9926
278,50	49,9133
279,00	49,9093
279,50	49,8160
280,00	49,8383
280,50	49,7743
281,00	49,6747
281,50	49,6103
282,00	49,5927
282,50	49,6470
283,00	49,5595
283,50	49,4806
284,00	49,4828
284,50	49,4224
285,00	49,3502
285,50	49,3947
286,00	49,3791
286,50	49,2816
287,00	49,1387
287,50	49,1254
288,00	49,1655
288,50	49,1170
289,00	49,0334
289,50	49,1000
290,00	48,9743
290,50	48,9729
291,00	48,9746
291,50	49,0053
292,00	49,0757
292,50	48,9407
293,00	48,9428
293,50	49,0006
294,00	48,8441
294,50	48,8630
295,00	48,8476
295,50	48,8274
296,00	48,8047
296,50	48,6961
297,00	48,6468
297,50	48,5655
298,00	48,5132
298,50	48,5219
299,00	48,5591
299,50	48,5198
300,00	48,6146
300,50	48,5673
301,00	48,5596
301,50	48,6489
302,00	48,6620
302,50	48,6741
303,00	48,7506
303,50	48,6684
304,00	48,6724
304,50	48,6308
305,00	48,6959
305,50	48,7542
306,00	48,6646
306,50	48,6410
307,00	48,5504
307,50	48,5228
308,00	48,5577
308,50	48,7376
309,00	48,8272
309,50	48,8989
310,00	48,9293
310,50	49,1577
311,00	49,4012
311,50	49,5313
312,00	49,5132
312,50	49,6095
313,00	49,5522
313,50	49,5336
314,00	49,6442
314,50	49,6745
315,00	49,5885
315,50	49,5694
316,00	49,5472
316,50	49,7260
317,00	49,8352
317,50	49,8451
318,00	49,8944
318,50	49,7593
319,00	49,8436
319,50	49,8545
320,00	49,7517
320,50	49,8457
321,00	49,7632
321,50	49,7019
322,00	49,7187
322,50	49,6418
323,00	49,7155
323,50	49,6688
324,00	49,6113
324,50	49,6045
325,00	49,6637
325,50	49,6468
326,00	49,5873
326,50	49,5219
327,00	49,6120
327,50	49,5127
328,00	49,4685
328,50	49,5402
329,00	49,4826
329,50	49,3407
330,00	49,3127
330,50	49,2713
331,00	49,3263
331,50	49,2254
332,00	49,1975
332,50	49,1688
333,00	49,1927
333,50	49,2097
334,00	49,2862
334,50	49,2522
335,00	49,2417
335,50	49,1664
336,00	49,1562
336,50	49,2023
337,00	49,1435
337,50	49,0998
338,00	49,0979
338,50	48,9876
339,00	49,0250
339,50	48,9937
340,00	48,9792
340,50	48,9908
341,00	48,9692
341,50	48,9701
342,00	48,8966
342,50	48,8043
343,00	48,7518
343,50	48,6647
344,00	48,6812
344,50	48,6467
345,00	48,5915
345,50	48,5628
346,00	48,5518
346,50	48,5874
347,00	48,6240
347,50	48,6494
348,00	48,6619
348,50	48,6333
349,00	48,6383
349,50	48,5495
350,00	48,4686
350,50	48,4754
351,00	48,4051
351,50	48,3973
352,00	48,3338
352,50	48,2422
353,00	48,2639
353,50	48,2295
354,00	48,2257
354,50	48,2707
355,00	48,2746
355,50	48,2350
356,00	48,1544
356,50	48,1788
357,00	48,1909
357,50	48,1400
358,00	48,0425
358,50	48,2715
359,00	48,3614
359,50	48,4826
360,00	48,6653
360,50	48,8470
361,00	48,9578
361,50	49,1038
362,00	49,2960
362,50	49,5067
363,00	49,4543
363,50	49,4484
364,00	49,3735
364,50	49,3286
365,00	49,3474
365,50	49,3628
366,00	49,3629
366,50	49,2524
367,00	49,2663
367,50	49,2554
368,00	49,2419
368,50	49,2615
369,00	49,2276
369,50	49,1765
370,00	49,1285
370,50	49,1266
371,00	49,1489
371,50	49,0920
372,00	49,0946
372,50	49,0666
373,00	49,0442
373,50	49,0327
374,00	48,9962
374,50	49,0003
375,00	48,9550
375,50	48,9075
376,00	48,8516
376,50	48,7078
377,00	48,6141
377,50	48,4618
378,00	48,2958
378,50	48,1413
379,00	47,9221
379,50	47,7789
380,00	47,6063
380,50	47,4510
381,00	47,3225
381,50	47,1757
382,00	47,0917
382,50	46,9755
383,00	46,8281
383,50	46,6909
384,00	46,5594
384,50	46,4283
385,00	46,2764
385,50	46,1748
386,00	46,0777
386,50	45,9764
387,00	45,9026
387,50	45,8589
388,00	45,8059
388,50	45,7600
389,00	45,7183
389,50	45,7082
390,00	45,6388
390,50	45,5991
391,00	45,5549
391,50	45,5380
392,00	45,4941
392,50	45,4909
393,00	45,4197
393,50	45,3774
394,00	45,3477
394,50	45,3326
395,00	45,2987
395,50	45,2611
396,00	45,2672
396,50	45,2841
397,00	45,2720
397,50	45,2906
398,00	45,2969
398,50	45,2596
399,00	45,2353
399,50	45,2488
400,00	45,2493
400,50	45,2437
401,00	45,2397
401,50	45,2248
402,00	45,1982
402,50	45,1873
403,00	45,1775
403,50	45,2029
404,00	45,1872
404,50	45,1766
405,00	45,1182
405,50	45,0663
406,00	45,0453
406,50	45,0264
407,00	45,0188
407,50	45,0446
408,00	44,9971
408,50	44,9949
409,00	44,9783
409,50	44,9566
410,00	44,9736
410,50	44,9601
411,00	44,9504
411,50	44,9316
412,00	44,8972
412,50	44,9031
413,00	44,8692
413,50	44,8461
414,00	44,8624
414,50	44,8235
415,00	44,8192
415,50	44,8229
416,00	44,7808
416,50	44,7606
417,00	44,7419
417,50	44,7070
418,00	44,6833
418,50	44,5659
419,00	44,4689
419,50	44,3589
420,00	44,2371
420,50	44,1323
421,00	44,0292
421,50	43,9214
422,00	43,8130
422,50	43,7634
423,00	43,7562
423,50	43,7501
424,00	43,7562
424,50	43,7483
425,00	43,7619
425,50	43,7627
426,00	43,7534
426,50	43,7460
427,00	43,7154
427,50	43,7211
428,00	43,7111
428,50	43,7049
429,00	43,6994
429,50	43,7002
430,00	43,6896
430,50	43,6990
431,00	43,7432
431,50	43,7475
432,00	43,7677
432,50	43,7679
433,00	43,7502
433,50	43,7483
434,00	43,7502
434,50	43,7405
435,00	43,7445
435,50	43,7243
436,00	43,7155
436,50	43,6817
437,00	43,6945
437,50	43,7006
438,00	43,7043
438,50	43,7008
439,00	43,7023
439,50	43,6737
440,00	43,6586
440,50	43,6704
441,00	43,6643
441,50	43,6519
442,00	43,6617
442,50	43,6555
443,00	43,6771
443,50	43,6638
444,00	43,6572
444,50	43,6670
445,00	43,6338
445,50	43,6293
446,00	43,6206
446,50	43,6017
447,00	43,6040
447,50	43,5817
448,00	43,6038
448,50	43,6138
449,00	43,6128
449,50	43,6248
450,00	43,6320
450,50	43,6288
451,00	43,6248
451,50	43,6290
452,00	43,6267
452,50	43,6199
453,00	43,6312
453,50	43,6162
454,00	43,6092
454,50	43,6104
455,00	43,5910
455,50	43,5880
456,00	43,5609
456,50	43,5377
457,00	43,5205
457,50	43,5048
458,00	43,4934
458,50	43,4937
459,00	43,4895
459,50	43,5024
460,00	43,4882
460,50	43,4860
461,00	43,4817
461,50	43,4832
462,00	43,4689
462,50	43,4577
463,00	43,4225
463,50	43,3671
464,00	43,3336
464,50	43,3046
465,00	43,2948
465,50	43,2780
466,00	43,2395
466,50	43,2278
467,00	43,2010
467,50	43,1854
468,00	43,1939
468,50	43,1838
469,00	43,1918
469,50	43,1868
470,00	43,1819
470,50	43,2001
471,00	43,1700
471,50	43,1699
472,00	43,1642
472,50	43,1768
473,00	43,1543
473,50	43,1394
474,00	43,1071
474,50	43,0794
475,00	43,0754
475,50	43,0769
476,00	43,0726
476,50	43,0803
477,00	43,0754
477,50	43,1006
478,00	43,1098
478,50	43,1046
479,00	43,1078
479,50	43,1004
480,00	43,1137
480,50	43,1236
481,00	43,1154
481,50	43,1090
482,00	43,0964
482,50	43,0895
483,00	43,1031
483,50	43,0953
484,00	43,1000
484,50	43,0898
485,00	43,0703
485,50	43,0638
486,00	43,0471
486,50	43,0499
487,00	43,0479
487,50	43,0389
488,00	43,0459
488,50	43,0383
489,00	43,0293
489,50	43,0300
490,00	43,0421
490,50	43,0364
491,00	43,0165
491,50	43,0080
492,00	43,0175
492,50	43,0371
493,00	43,0162
493,50	43,0230
494,00	43,0418
494,50	43,0374
495,00	43,0534
495,50	43,0693
496,00	43,0636
496,50	43,0613
497,00	43,0555
497,50	43,0584
498,00	43,0711
498,50	43,0474
499,00	43,0461
499,50	43,0427
500,00	43,0305
500,50	43,0324
501,00	43,0263
501,50	43,0166
502,00	43,0178
502,50	43,0129
503,00	43,0233
503,50	43,0243
504,00	43,0254
504,50	43,0230
505,00	43,0305
505,50	43,0176
506,00	43,0264
506,50	43,0167
507,00	43,0235
507,50	42,9995
508,00	42,9937
508,50	42,9872
509,00	42,9932
509,50	42,9808
510,00	42,9761
510,50	42,9684
511,00	42,9897
511,50	42,9743
512,00	42,9816
512,50	42,9555
513,00	42,9343
513,50	42,9287
514,00	42,9226
514,50	42,9250
515,00	42,9172
515,50	42,8980
516,00	42,8766
516,50	42,8931
517,00	42,8936
517,50	42,9033
518,00	42,8788
518,50	42,8761
519,00	42,8711
519,50	42,8483
520,00	42,8512
520,50	42,8560
521,00	42,8469
521,50	42,8741
522,00	42,8750
522,50	42,9014
523,00	42,8951
523,50	42,8933
524,00	42,9305
524,50	42,9111
525,00	42,9051
525,50	42,8878
526,00	42,8500
526,50	42,8124
527,00	42,7825
527,50	42,7733
528,00	42,7645
528,50	42,6992
529,00	42,6757
529,50	42,6258
530,00	42,5804
530,50	42,5557
531,00	42,5395
531,50	42,5299
532,00	42,4847
532,50	42,4410
533,00	42,4430
533,50	42,4244
534,00	42,4436
534,50	42,4501
535,00	42,4726
535,50	42,4576
536,00	42,4627
536,50	42,4567
537,00	42,4610
537,50	42,4624
538,00	42,4945
538,50	42,4780
539,00	42,4793
539,50	42,4519
540,00	42,4631
540,50	42,4125
541,00	42,4317
541,50	42,4418
542,00	42,4307
542,50	42,4056
543,00	42,4194
543,50	42,4160
544,00	42,4286
544,50	42,4332
545,00	42,4608
545,50	42,4560
546,00	42,4406
546,50	42,4523
547,00	42,4521
547,50	42,4285
548,00	42,4414
548,50	42,4402
549,00	42,4206
549,50	42,4256
550,00	42,4186
550,50	42,4166
551,00	42,4198
551,50	42,4000
552,00	42,4193
552,50	42,3947
553,00	42,3804
553,50	42,3851
554,00	42,3741
554,50	42,3705
555,00	42,3845
555,50	42,3658
556,00	42,3552
556,50	42,3424
557,00	42,3184
557,50	42,2974
558,00	42,2849
558,50	42,2718
559,00	42,2634
559,50	42,2225
560,00	42,2029
560,50	42,2068
561,00	42,1816
561,50	42,1960
562,00	42,1954
562,50	42,1757
563,00	42,1723
563,50	42,1557
564,00	42,1671
564,50	42,1514
565,00	42,1335
565,50	42,1375
566,00	42,1143
566,50	42,0973
567,00	42,1200
567,50	42,1140
568,00	42,1166
568,50	42,0886
569,00	42,0753
569,50	42,0814
570,00	42,0788
570,50	42,0892
571,00	42,0921
571,50	42,0744
572,00	42,0707
572,50	42,0397
573,00	42,0509
573,50	42,0719
574,00	42,0624
574,50	42,0453
575,00	42,0312
575,50	42,0265
576,00	42,0262
576,50	42,0211
577,00	42,0386
577,50	42,0307
578,00	42,0289
578,50	42,0269
579,00	42,0337
579,50	42,0294
580,00	42,0405
580,50	42,0216
581,00	42,0037
581,50	42,0351
582,00	42,0654
582,50	42,0647
583,00	42,0692
583,50	42,0847
584,00	42,1125
584,50	42,1016
585,00	42,1311
585,50	42,1320
586,00	42,1360
586,50	42,1215
587,00	42,1313
587,50	42,1476
588,00	42,1411
588,50	42,1337
589,00	42,1519
589,50	42,1386
590,00	42,1580
590,50	42,1491
591,00	42,1570
591,50	42,1517
592,00	42,1490
592,50	42,1588
593,00	42,1665
593,50	42,1427
594,00	42,1369
594,50	42,1414
595,00	42,1294
595,50	42,1237
596,00	42,1223
596,50	42,1143
597,00	42,1051
597,50	42,0905
598,00	42,1024
598,50	42,1045
599,00	42,0934
599,50	42,0906
600,00	42,0862
