"pen_argset_otherB_centre_front - Storage 131310"
"Wavelength nm."	"R%"
185,00	185,7980
185,50	187,7241
186,00	188,1797
186,50	185,0504
187,00	187,1610
187,50	186,9407
188,00	144,2544
188,50	146,8026
189,00	142,9159
189,50	127,9417
190,00	122,6416
190,50	121,1272
191,00	121,2927
191,50	115,0628
192,00	112,7538
192,50	108,1985
193,00	105,4240
193,50	101,2439
194,00	98,9716
194,50	99,4584
195,00	95,8764
195,50	95,8749
196,00	94,8357
196,50	92,4290
197,00	92,6129
197,50	92,1819
198,00	92,3766
198,50	92,9002
199,00	91,3052
199,50	91,0678
200,00	89,0619
200,50	89,2599
201,00	88,9413
201,50	88,9827
202,00	87,9248
202,50	86,2126
203,00	84,8795
203,50	83,3204
204,00	82,3491
204,50	81,6371
205,00	80,9038
205,50	80,1385
206,00	78,9356
206,50	78,9181
207,00	78,6196
207,50	78,5848
208,00	78,6721
208,50	77,9266
209,00	77,2342
209,50	76,7836
210,00	76,1927
210,50	75,1911
211,00	73,6702
211,50	73,0503
212,00	72,3073
212,50	71,1114
213,00	70,4678
213,50	69,5988
214,00	68,1853
214,50	67,5459
215,00	66,9103
215,50	66,4839
216,00	65,7777
216,50	65,2691
217,00	64,3537
217,50	63,6265
218,00	63,0524
218,50	62,5592
219,00	61,9335
219,50	61,4917
220,00	60,8738
220,50	60,4957
221,00	59,7938
221,50	59,6272
222,00	59,2759
222,50	58,7438
223,00	58,5754
223,50	58,0479
224,00	57,3686
224,50	56,9827
225,00	56,4241
225,50	56,0216
226,00	55,6201
226,50	55,2393
227,00	54,9038
227,50	54,4149
228,00	54,0240
228,50	53,7954
229,00	53,5344
229,50	53,2074
230,00	52,9321
230,50	52,6795
231,00	52,5441
231,50	52,2353
232,00	51,9406
232,50	51,7028
233,00	51,5561
233,50	51,1927
234,00	50,9885
234,50	50,7405
235,00	50,5279
235,50	50,3228
236,00	50,1952
236,50	50,1176
237,00	49,9262
237,50	49,7634
238,00	49,7193
238,50	49,7397
239,00	49,7066
239,50	49,7168
240,00	49,5364
240,50	49,5556
241,00	49,3881
241,50	49,4587
242,00	49,4333
242,50	49,4720
243,00	49,4172
243,50	49,3204
244,00	49,2616
244,50	49,2593
245,00	49,1326
245,50	49,1526
246,00	49,0637
246,50	49,0064
247,00	49,0113
247,50	48,8539
248,00	48,9248
248,50	48,8443
249,00	48,8158
249,50	48,8523
250,00	48,9402
250,50	48,9594
251,00	49,0319
251,50	48,9935
252,00	49,1318
252,50	49,1091
253,00	49,2151
253,50	49,4178
254,00	49,5019
254,50	49,4951
255,00	49,5779
255,50	49,6037
256,00	49,6687
256,50	49,6658
257,00	49,7116
257,50	49,7183
258,00	49,7224
258,50	49,6798
259,00	49,7877
259,50	49,8687
260,00	49,9749
260,50	50,0223
261,00	50,0973
261,50	50,1276
262,00	50,2419
262,50	50,1701
263,00	50,3895
263,50	50,3893
264,00	50,3343
264,50	50,3135
265,00	50,2914
265,50	50,2331
266,00	50,3223
266,50	50,1651
267,00	50,2044
267,50	50,0565
268,00	50,0964
268,50	50,1486
269,00	50,0576
269,50	50,1264
270,00	50,1596
270,50	50,1091
271,00	50,1609
271,50	50,2000
272,00	50,1544
272,50	50,0300
273,00	49,9614
273,50	50,0557
274,00	49,9845
274,50	49,9271
275,00	49,9311
275,50	49,8746
276,00	49,8179
276,50	49,7736
277,00	49,7591
277,50	49,7494
278,00	49,6116
278,50	49,5502
279,00	49,5725
279,50	49,4735
280,00	49,5159
280,50	49,4574
281,00	49,5070
281,50	49,4309
282,00	49,4502
282,50	49,5356
283,00	49,4761
283,50	49,4937
284,00	49,5505
284,50	49,4986
285,00	49,5185
285,50	49,4460
286,00	49,4337
286,50	49,3410
287,00	49,1933
287,50	49,1653
288,00	49,0807
288,50	48,9539
289,00	48,9122
289,50	48,9012
290,00	48,8836
290,50	48,8369
291,00	48,7412
291,50	48,7915
292,00	48,8293
292,50	48,7634
293,00	48,7767
293,50	48,7824
294,00	48,7405
294,50	48,6992
295,00	48,7365
295,50	48,7301
296,00	48,5777
296,50	48,5171
297,00	48,5132
297,50	48,4743
298,00	48,4813
298,50	48,4188
299,00	48,4377
299,50	48,4207
300,00	48,5359
300,50	48,5934
301,00	48,5925
301,50	48,6364
302,00	48,5368
302,50	48,4887
303,00	48,4826
303,50	48,4597
304,00	48,4459
304,50	48,3827
305,00	48,3944
305,50	48,3358
306,00	48,2489
306,50	48,3446
307,00	48,2734
307,50	48,2326
308,00	48,1978
308,50	48,3193
309,00	48,4252
309,50	48,6132
310,00	48,6904
310,50	48,9067
311,00	49,0435
311,50	49,2024
312,00	49,3332
312,50	49,5059
313,00	49,5018
313,50	49,4981
314,00	49,5694
314,50	49,6571
315,00	49,5989
315,50	49,6307
316,00	49,6805
316,50	49,6867
317,00	49,6317
317,50	49,6742
318,00	49,6570
318,50	49,5960
319,00	49,5606
319,50	49,5740
320,00	49,5094
320,50	49,4211
321,00	49,3579
321,50	49,4021
322,00	49,3755
322,50	49,3687
323,00	49,3328
323,50	49,3534
324,00	49,3435
324,50	49,2946
325,00	49,3600
325,50	49,4436
326,00	49,3688
326,50	49,3108
327,00	49,2809
327,50	49,2501
328,00	49,2099
328,50	49,2022
329,00	49,2538
329,50	49,2191
330,00	49,2034
330,50	49,1324
331,00	49,1777
331,50	49,1799
332,00	49,0822
332,50	49,0607
333,00	49,0700
333,50	48,9724
334,00	48,9932
334,50	48,9240
335,00	48,9919
335,50	48,9529
336,00	48,9508
336,50	48,9429
337,00	48,9476
337,50	48,8925
338,00	48,9532
338,50	48,8960
339,00	48,8979
339,50	48,8525
340,00	48,7993
340,50	48,8114
341,00	48,8094
341,50	48,7232
342,00	48,6627
342,50	48,6316
343,00	48,6146
343,50	48,5884
344,00	48,5856
344,50	48,5775
345,00	48,5559
345,50	48,5822
346,00	48,5993
346,50	48,5559
347,00	48,5109
347,50	48,4569
348,00	48,4342
348,50	48,3932
349,00	48,3269
349,50	48,2757
350,00	48,2027
350,50	48,2133
351,00	48,2260
351,50	48,1885
352,00	48,1479
352,50	48,1296
353,00	48,1829
353,50	48,2401
354,00	48,1838
354,50	48,2149
355,00	48,1593
355,50	48,0731
356,00	48,0219
356,50	48,0362
357,00	47,9624
357,50	47,9109
358,00	47,7975
358,50	47,9475
359,00	48,0260
359,50	48,2186
360,00	48,4371
360,50	48,6040
361,00	48,7742
361,50	48,9728
362,00	49,1189
362,50	49,3402
363,00	49,3594
363,50	49,3594
364,00	49,2759
364,50	49,2812
365,00	49,3003
365,50	49,2777
366,00	49,2838
366,50	49,2227
367,00	49,1923
367,50	49,1658
368,00	49,1726
368,50	49,1990
369,00	49,1395
369,50	49,1211
370,00	49,0471
370,50	49,0363
371,00	49,0174
371,50	49,0212
372,00	48,9930
372,50	48,9675
373,00	48,9714
373,50	48,9717
374,00	48,9053
374,50	48,8769
375,00	48,7576
375,50	48,6805
376,00	48,5569
376,50	48,4859
377,00	48,3890
377,50	48,2313
378,00	48,0669
378,50	47,8932
379,00	47,7130
379,50	47,5631
380,00	47,3956
380,50	47,2475
381,00	47,0560
381,50	46,8633
382,00	46,7252
382,50	46,5723
383,00	46,4448
383,50	46,3031
384,00	46,1370
384,50	46,0150
385,00	45,8903
385,50	45,8018
386,00	45,7217
386,50	45,5915
387,00	45,5011
387,50	45,4366
388,00	45,3882
388,50	45,3711
389,00	45,3410
389,50	45,2720
390,00	45,2006
390,50	45,1386
391,00	45,1360
391,50	45,1281
392,00	45,1075
392,50	45,0867
393,00	45,0397
393,50	45,0044
394,00	44,9953
394,50	44,9970
395,00	45,0122
395,50	44,9467
396,00	44,9033
396,50	44,9024
397,00	44,9020
397,50	44,9201
398,00	44,9181
398,50	44,8896
399,00	44,8481
399,50	44,8291
400,00	44,8559
400,50	44,8851
401,00	44,8725
401,50	44,8533
402,00	44,8204
402,50	44,7965
403,00	44,7915
403,50	44,8184
404,00	44,7963
404,50	44,7605
405,00	44,7123
405,50	44,6720
406,00	44,6530
406,50	44,6437
407,00	44,6597
407,50	44,6660
408,00	44,6330
408,50	44,6237
409,00	44,5751
409,50	44,5623
410,00	44,5638
410,50	44,5687
411,00	44,5523
411,50	44,5223
412,00	44,5041
412,50	44,4583
413,00	44,4477
413,50	44,4978
414,00	44,5016
414,50	44,4921
415,00	44,4588
415,50	44,4533
416,00	44,4276
416,50	44,3711
417,00	44,3907
417,50	44,3589
418,00	44,3147
418,50	44,1977
419,00	44,0887
419,50	43,9881
420,00	43,8829
420,50	43,7909
421,00	43,7222
421,50	43,6129
422,00	43,5274
422,50	43,4562
423,00	43,4477
423,50	43,4282
424,00	43,4249
424,50	43,3895
425,00	43,3748
425,50	43,3474
426,00	43,3328
426,50	43,3186
427,00	43,2775
427,50	43,2773
428,00	43,2572
428,50	43,2372
429,00	43,2579
429,50	43,2645
430,00	43,2682
430,50	43,2744
431,00	43,2839
431,50	43,3265
432,00	43,3353
432,50	43,3486
433,00	43,3689
433,50	43,3801
434,00	43,3735
434,50	43,3624
435,00	43,3601
435,50	43,3577
436,00	43,3351
436,50	43,3300
437,00	43,3512
437,50	43,3422
438,00	43,3357
438,50	43,3128
439,00	43,3207
439,50	43,3272
440,00	43,2912
440,50	43,2999
441,00	43,2839
441,50	43,2642
442,00	43,2536
442,50	43,2349
443,00	43,2612
443,50	43,2708
444,00	43,2614
444,50	43,2555
445,00	43,2262
445,50	43,2280
446,00	43,1984
446,50	43,1768
447,00	43,1880
447,50	43,1906
448,00	43,2025
448,50	43,2089
449,00	43,2352
449,50	43,2710
450,00	43,2742
450,50	43,2916
451,00	43,3097
451,50	43,3064
452,00	43,2934
452,50	43,2817
453,00	43,2612
453,50	43,2430
454,00	43,2310
454,50	43,2349
455,00	43,2500
455,50	43,2374
456,00	43,2092
456,50	43,1896
457,00	43,1717
457,50	43,1704
458,00	43,1592
458,50	43,1485
459,00	43,1301
459,50	43,1230
460,00	43,1179
460,50	43,1195
461,00	43,1146
461,50	43,1040
462,00	43,0891
462,50	43,0678
463,00	43,0428
463,50	43,0247
464,00	43,0012
464,50	42,9889
465,00	43,0016
465,50	42,9924
466,00	42,9952
466,50	43,0060
467,00	43,0136
467,50	43,0063
468,00	42,9835
468,50	42,9731
469,00	42,9623
469,50	42,9408
470,00	42,9410
470,50	42,9198
471,00	42,8875
471,50	42,8985
472,00	42,8861
472,50	42,9038
473,00	42,8752
473,50	42,8712
474,00	42,8461
474,50	42,8317
475,00	42,8278
475,50	42,8336
476,00	42,8026
476,50	42,7980
477,00	42,7986
477,50	42,8247
478,00	42,8334
478,50	42,8380
479,00	42,8190
479,50	42,8120
480,00	42,7984
480,50	42,8195
481,00	42,8308
481,50	42,8144
482,00	42,7976
482,50	42,7768
483,00	42,7852
483,50	42,7879
484,00	42,8027
484,50	42,7956
485,00	42,7728
485,50	42,7537
486,00	42,7555
486,50	42,7640
487,00	42,7765
487,50	42,7767
488,00	42,7698
488,50	42,7746
489,00	42,7874
489,50	42,7919
490,00	42,7978
490,50	42,7949
491,00	42,7833
491,50	42,7737
492,00	42,7730
492,50	42,8053
493,00	42,7783
493,50	42,7678
494,00	42,7943
494,50	42,8089
495,00	42,8332
495,50	42,8509
496,00	42,8342
496,50	42,8253
497,00	42,8344
497,50	42,8413
498,00	42,8412
498,50	42,8056
499,00	42,7897
499,50	42,7843
500,00	42,7603
500,50	42,7872
501,00	42,7926
501,50	42,7667
502,00	42,7706
502,50	42,7780
503,00	42,7949
503,50	42,8035
504,00	42,7980
504,50	42,8122
505,00	42,8113
505,50	42,7873
506,00	42,8019
506,50	42,8049
507,00	42,7986
507,50	42,7837
508,00	42,7558
508,50	42,7463
509,00	42,7364
509,50	42,7094
510,00	42,7217
510,50	42,6839
511,00	42,6542
511,50	42,6442
512,00	42,6349
512,50	42,6344
513,00	42,6023
513,50	42,6094
514,00	42,6232
514,50	42,6128
515,00	42,6374
515,50	42,6504
516,00	42,6574
516,50	42,6453
517,00	42,6231
517,50	42,6493
518,00	42,6504
518,50	42,6554
519,00	42,6620
519,50	42,6539
520,00	42,6632
520,50	42,6707
521,00	42,6747
521,50	42,6996
522,00	42,6771
522,50	42,6712
523,00	42,6521
523,50	42,6332
524,00	42,6470
524,50	42,6334
525,00	42,6214
525,50	42,6137
526,00	42,5871
526,50	42,5750
527,00	42,5570
527,50	42,5451
528,00	42,5358
528,50	42,4595
529,00	42,4052
529,50	42,3677
530,00	42,3356
530,50	42,3080
531,00	42,2716
531,50	42,2282
532,00	42,1906
532,50	42,1567
533,00	42,1690
533,50	42,1784
534,00	42,1658
534,50	42,1674
535,00	42,1946
535,50	42,2137
536,00	42,2222
536,50	42,2357
537,00	42,2637
537,50	42,2694
538,00	42,2730
538,50	42,2632
539,00	42,2527
539,50	42,2501
540,00	42,2421
540,50	42,2264
541,00	42,2315
541,50	42,2016
542,00	42,1990
542,50	42,1868
543,00	42,1881
543,50	42,2051
544,00	42,1878
544,50	42,1750
545,00	42,1823
545,50	42,1828
546,00	42,1962
546,50	42,1841
547,00	42,1959
547,50	42,2021
548,00	42,1909
548,50	42,1794
549,00	42,1630
549,50	42,1766
550,00	42,1595
550,50	42,1471
551,00	42,1423
551,50	42,1226
552,00	42,1224
552,50	42,1146
553,00	42,1116
553,50	42,1322
554,00	42,1081
554,50	42,0903
555,00	42,0998
555,50	42,1029
556,00	42,0966
556,50	42,0814
557,00	42,0646
557,50	42,0500
558,00	42,0354
558,50	42,0108
559,00	42,0089
559,50	41,9900
560,00	41,9820
560,50	41,9885
561,00	41,9829
561,50	41,9854
562,00	41,9859
562,50	41,9966
563,00	42,0162
563,50	42,0106
564,00	41,9967
564,50	41,9886
565,00	41,9742
565,50	41,9830
566,00	41,9621
566,50	41,9484
567,00	41,9349
567,50	41,9163
568,00	41,9265
568,50	41,9023
569,00	41,9073
569,50	41,9073
570,00	41,8972
570,50	41,9061
571,00	41,9031
571,50	41,8876
572,00	41,8886
572,50	41,8680
573,00	41,8920
573,50	41,8872
574,00	41,8845
574,50	41,8760
575,00	41,8776
575,50	41,8858
576,00	41,8895
576,50	41,8938
577,00	41,9026
577,50	41,9154
578,00	41,9132
578,50	41,8880
579,00	41,8864
579,50	41,8815
580,00	41,8740
580,50	41,8801
581,00	41,8870
581,50	41,8881
582,00	41,8901
582,50	41,8914
583,00	41,9032
583,50	41,9282
584,00	41,9578
584,50	41,9557
585,00	41,9590
585,50	41,9530
586,00	41,9571
586,50	41,9587
587,00	41,9536
587,50	41,9816
588,00	41,9615
588,50	41,9605
589,00	41,9867
589,50	41,9874
590,00	41,9973
590,50	42,0218
591,00	42,0126
591,50	42,0349
592,00	42,0345
592,50	42,0351
593,00	42,0310
593,50	42,0285
594,00	42,0399
594,50	42,0524
595,00	42,0359
595,50	42,0419
596,00	42,0163
596,50	42,0217
597,00	42,0417
597,50	42,0270
598,00	42,0206
598,50	42,0078
599,00	41,9885
599,50	41,9828
600,00	41,9781
