"pen_teonex_Q51_old_spot3 - Storage 133844"
"Wavelength nm."	"R%"
185,00	269,7919
185,50	246,7866
186,00	222,0813
186,50	198,1026
187,00	177,2530
187,50	154,4451
188,00	129,4806
188,50	131,9435
189,00	117,1940
189,50	111,4398
190,00	111,6018
190,50	112,6718
191,00	112,8312
191,50	110,3686
192,00	109,3129
192,50	105,6743
193,00	102,4413
193,50	98,6547
194,00	97,1928
194,50	96,1687
195,00	94,5740
195,50	95,4538
196,00	93,3947
196,50	92,4697
197,00	91,9225
197,50	91,9222
198,00	91,5157
198,50	91,2607
199,00	91,0284
199,50	90,9463
200,00	88,9608
200,50	88,5391
201,00	88,2542
201,50	88,5769
202,00	87,4401
202,50	86,1556
203,00	85,3122
203,50	83,6870
204,00	83,1025
204,50	82,2290
205,00	82,2459
205,50	80,9642
206,00	79,6527
206,50	79,6636
207,00	79,6782
207,50	78,7234
208,00	77,7598
208,50	77,0237
209,00	76,0606
209,50	75,0425
210,00	75,0039
210,50	74,0854
211,00	72,2602
211,50	70,9236
212,00	70,2407
212,50	69,5091
213,00	68,5964
213,50	67,8237
214,00	67,0202
214,50	65,9236
215,00	65,2718
215,50	64,9623
216,00	64,6367
216,50	63,9798
217,00	63,1908
217,50	62,6454
218,00	62,1956
218,50	61,5725
219,00	61,0631
219,50	60,5107
220,00	60,0803
220,50	59,5978
221,00	58,9762
221,50	58,6590
222,00	58,3320
222,50	57,6869
223,00	57,4440
223,50	56,7078
224,00	56,1037
224,50	55,7137
225,00	55,1906
225,50	54,8595
226,00	54,5434
226,50	53,9283
227,00	53,5388
227,50	53,0219
228,00	52,7665
228,50	52,4566
229,00	52,0542
229,50	51,8583
230,00	51,5757
230,50	51,3173
231,00	51,2381
231,50	51,0265
232,00	50,7717
232,50	50,5132
233,00	50,4021
233,50	50,1884
234,00	49,9800
234,50	49,8009
235,00	49,6873
235,50	49,5856
236,00	49,5002
236,50	49,4732
237,00	49,3952
237,50	49,2734
238,00	49,1319
238,50	48,9800
239,00	48,9368
239,50	48,7351
240,00	48,5592
240,50	48,5442
241,00	48,4301
241,50	48,4616
242,00	48,3697
242,50	48,4826
243,00	48,4616
243,50	48,4030
244,00	48,4324
244,50	48,5209
245,00	48,4167
245,50	48,3269
246,00	48,1901
246,50	48,2922
247,00	48,2245
247,50	48,1653
248,00	48,1820
248,50	48,1571
249,00	48,0304
249,50	48,0546
250,00	48,2119
250,50	48,2705
251,00	48,1910
251,50	48,2337
252,00	48,3702
252,50	48,4623
253,00	48,6022
253,50	48,8428
254,00	48,9095
254,50	48,9302
255,00	49,1088
255,50	49,2590
256,00	49,3904
256,50	49,4517
257,00	49,5056
257,50	49,5508
258,00	49,5657
258,50	49,6926
259,00	49,8710
259,50	49,9008
260,00	50,0417
260,50	50,1171
261,00	50,2356
261,50	50,2942
262,00	50,4122
262,50	50,4385
263,00	50,5511
263,50	50,5248
264,00	50,4967
264,50	50,5691
265,00	50,5658
265,50	50,4848
266,00	50,5290
266,50	50,5087
267,00	50,4608
267,50	50,4039
268,00	50,3295
268,50	50,3137
269,00	50,1685
269,50	50,1769
270,00	50,1897
270,50	50,1431
271,00	49,9950
271,50	50,0234
272,00	49,9999
272,50	50,0152
273,00	49,9808
273,50	49,9488
274,00	49,8949
274,50	49,9020
275,00	49,8767
275,50	49,9230
276,00	49,8973
276,50	49,8686
277,00	49,7295
277,50	49,7724
278,00	49,7359
278,50	49,7172
279,00	49,5691
279,50	49,4635
280,00	49,3989
280,50	49,3252
281,00	49,2611
281,50	49,2840
282,00	49,2682
282,50	49,2243
283,00	49,1394
283,50	49,1449
284,00	49,2324
284,50	49,2350
285,00	49,2311
285,50	49,2456
286,00	49,2127
286,50	49,0931
287,00	48,9733
287,50	48,8988
288,00	48,8694
288,50	48,8561
289,00	48,8400
289,50	48,8897
290,00	48,8231
290,50	48,8078
291,00	48,7829
291,50	48,8753
292,00	48,9275
292,50	48,9369
293,00	48,9128
293,50	48,8609
294,00	48,7803
294,50	48,7199
295,00	48,7448
295,50	48,7440
296,00	48,6412
296,50	48,5971
297,00	48,5347
297,50	48,3974
298,00	48,4247
298,50	48,3344
299,00	48,4449
299,50	48,4045
300,00	48,4893
300,50	48,5743
301,00	48,4794
301,50	48,5095
302,00	48,4722
302,50	48,4408
303,00	48,5199
303,50	48,4409
304,00	48,4653
304,50	48,4090
305,00	48,4145
305,50	48,4612
306,00	48,3972
306,50	48,5200
307,00	48,4641
307,50	48,3624
308,00	48,4356
308,50	48,5925
309,00	48,6576
309,50	48,7511
310,00	48,8499
310,50	49,0660
311,00	49,2599
311,50	49,4021
312,00	49,5529
312,50	49,6945
313,00	49,6288
313,50	49,6525
314,00	49,6278
314,50	49,6987
315,00	49,7040
315,50	49,5605
316,00	49,6678
316,50	49,7325
317,00	49,6479
317,50	49,7576
318,00	49,8109
318,50	49,9437
319,00	49,8844
319,50	49,9044
320,00	49,8339
320,50	49,7351
321,00	49,7221
321,50	49,7056
322,00	49,6664
322,50	49,6300
323,00	49,5943
323,50	49,7234
324,00	49,7038
324,50	49,8110
325,00	49,9157
325,50	49,8942
326,00	49,9159
326,50	49,8620
327,00	49,8473
327,50	49,7683
328,00	49,6407
328,50	49,5833
329,00	49,5389
329,50	49,4793
330,00	49,4229
330,50	49,3009
331,00	49,2878
331,50	49,2365
332,00	49,1645
332,50	49,1572
333,00	49,1959
333,50	49,1811
334,00	49,1602
334,50	49,1366
335,00	49,1979
335,50	49,1496
336,00	49,1502
336,50	49,1581
337,00	49,1645
337,50	49,0459
338,00	49,0866
338,50	49,0141
339,00	49,0415
339,50	49,0060
340,00	49,0344
340,50	49,0250
341,00	48,9737
341,50	49,0042
342,00	49,0678
342,50	48,9853
343,00	48,9693
343,50	48,9424
344,00	48,8539
344,50	48,7970
345,00	48,7984
345,50	48,8818
346,00	48,8081
346,50	48,7145
347,00	48,7053
347,50	48,7022
348,00	48,6655
348,50	48,6792
349,00	48,6204
349,50	48,5284
350,00	48,4088
350,50	48,3439
351,00	48,3193
351,50	48,2934
352,00	48,2045
352,50	48,1746
353,00	48,1831
353,50	48,2153
354,00	48,2419
354,50	48,2210
355,00	48,2246
355,50	48,1941
356,00	48,1142
356,50	48,1444
357,00	48,1156
357,50	48,1347
358,00	48,0365
358,50	48,1397
359,00	48,2737
359,50	48,4484
360,00	48,6323
360,50	48,8274
361,00	48,9357
361,50	49,1396
362,00	49,2827
362,50	49,4753
363,00	49,4675
363,50	49,5047
364,00	49,4486
364,50	49,4263
365,00	49,4301
365,50	49,4513
366,00	49,3244
366,50	49,2566
367,00	49,2546
367,50	49,2581
368,00	49,2127
368,50	49,1972
369,00	49,1784
369,50	49,1609
370,00	49,1191
370,50	49,1904
371,00	49,1940
371,50	49,1719
372,00	49,1649
372,50	49,1549
373,00	49,1413
373,50	49,1595
374,00	49,1216
374,50	49,0904
375,00	48,9657
375,50	48,9237
376,00	48,8679
376,50	48,7720
377,00	48,6657
377,50	48,5126
378,00	48,3319
378,50	48,1123
379,00	47,9541
379,50	47,7997
380,00	47,5765
380,50	47,3850
381,00	47,1936
381,50	47,0103
382,00	46,8782
382,50	46,7083
383,00	46,5586
383,50	46,3965
384,00	46,2682
384,50	46,1530
385,00	45,9963
385,50	45,9081
386,00	45,8061
386,50	45,6764
387,00	45,5847
387,50	45,5682
388,00	45,5064
388,50	45,4603
389,00	45,4132
389,50	45,3683
390,00	45,2936
390,50	45,2469
391,00	45,2291
391,50	45,2304
392,00	45,1683
392,50	45,1761
393,00	45,1707
393,50	45,1161
394,00	45,1495
394,50	45,1314
395,00	45,1380
395,50	45,1234
396,00	45,0769
396,50	45,1017
397,00	45,0742
397,50	45,0845
398,00	45,1001
398,50	45,0570
399,00	45,0610
399,50	45,0638
400,00	45,0632
400,50	45,0758
401,00	45,0827
401,50	45,0809
402,00	45,0333
402,50	45,0233
403,00	45,0205
403,50	45,0207
404,00	44,9840
404,50	44,9521
405,00	44,9174
405,50	44,8860
406,00	44,8542
406,50	44,8452
407,00	44,8636
407,50	44,8553
408,00	44,8249
408,50	44,8202
409,00	44,8106
409,50	44,8025
410,00	44,7765
410,50	44,7736
411,00	44,7432
411,50	44,6840
412,00	44,6748
412,50	44,6499
413,00	44,6444
413,50	44,6366
414,00	44,6332
414,50	44,6226
415,00	44,6014
415,50	44,6101
416,00	44,5895
416,50	44,5623
417,00	44,5459
417,50	44,4970
418,00	44,4790
418,50	44,3544
419,00	44,2488
419,50	44,1545
420,00	44,0455
420,50	43,9804
421,00	43,8665
421,50	43,7955
422,00	43,7080
422,50	43,6276
423,00	43,6290
423,50	43,6210
424,00	43,6035
424,50	43,5724
425,00	43,5617
425,50	43,5528
426,00	43,5185
426,50	43,5011
427,00	43,4739
427,50	43,4766
428,00	43,4754
428,50	43,5002
429,00	43,5002
429,50	43,4777
430,00	43,4745
430,50	43,4745
431,00	43,4912
431,50	43,5068
432,00	43,5089
432,50	43,4868
433,00	43,4711
433,50	43,4839
434,00	43,4939
434,50	43,4803
435,00	43,4859
435,50	43,4847
436,00	43,4809
436,50	43,4919
437,00	43,4938
437,50	43,4893
438,00	43,4873
438,50	43,4920
439,00	43,5136
439,50	43,4968
440,00	43,4844
440,50	43,4931
441,00	43,4779
441,50	43,4933
442,00	43,4827
442,50	43,4697
443,00	43,4472
443,50	43,4313
444,00	43,4368
444,50	43,4110
445,00	43,3985
445,50	43,3957
446,00	43,3662
446,50	43,3716
447,00	43,3902
447,50	43,4048
448,00	43,4181
448,50	43,4126
449,00	43,4312
449,50	43,4428
450,00	43,4538
450,50	43,4790
451,00	43,4609
451,50	43,4603
452,00	43,4785
452,50	43,4993
453,00	43,5067
453,50	43,5164
454,00	43,4899
454,50	43,4795
455,00	43,4848
455,50	43,4970
456,00	43,4682
456,50	43,4300
457,00	43,3966
457,50	43,4146
458,00	43,3903
458,50	43,3960
459,00	43,3758
459,50	43,3412
460,00	43,3300
460,50	43,3303
461,00	43,3484
461,50	43,3436
462,00	43,3319
462,50	43,3189
463,00	43,3036
463,50	43,3075
464,00	43,2942
464,50	43,2659
465,00	43,2650
465,50	43,2401
466,00	43,2099
466,50	43,1814
467,00	43,1783
467,50	43,1605
468,00	43,1341
468,50	43,1419
469,00	43,1626
469,50	43,1628
470,00	43,1530
470,50	43,1611
471,00	43,1570
471,50	43,1469
472,00	43,1407
472,50	43,1573
473,00	43,1363
473,50	43,1105
474,00	43,0892
474,50	43,0828
475,00	43,0685
475,50	43,0609
476,00	43,0614
476,50	43,0539
477,00	43,0430
477,50	43,0398
478,00	43,0428
478,50	43,0354
479,00	43,0282
479,50	43,0465
480,00	43,0421
480,50	43,0452
481,00	43,0592
481,50	43,0505
482,00	43,0440
482,50	43,0304
483,00	43,0362
483,50	43,0490
484,00	43,0485
484,50	43,0381
485,00	43,0356
485,50	43,0365
486,00	43,0254
486,50	43,0496
487,00	43,0496
487,50	43,0537
488,00	43,0534
488,50	43,0472
489,00	43,0508
489,50	43,0381
490,00	43,0220
490,50	43,0260
491,00	42,9987
491,50	42,9900
492,00	42,9685
492,50	42,9663
493,00	42,9306
493,50	42,9221
494,00	42,9354
494,50	42,9558
495,00	42,9615
495,50	42,9758
496,00	42,9948
496,50	43,0051
497,00	43,0068
497,50	43,0349
498,00	43,0285
498,50	43,0304
499,00	43,0410
499,50	43,0417
500,00	43,0420
500,50	43,0354
501,00	43,0268
501,50	43,0195
502,00	43,0283
502,50	43,0270
503,00	43,0416
503,50	43,0209
504,00	43,0318
504,50	43,0109
505,00	43,0123
505,50	43,0175
506,00	43,0183
506,50	42,9867
507,00	43,0012
507,50	42,9790
508,00	42,9617
508,50	42,9187
509,00	42,9244
509,50	42,9048
510,00	42,8902
510,50	42,8753
511,00	42,8832
511,50	42,8751
512,00	42,8543
512,50	42,8572
513,00	42,8574
513,50	42,8582
514,00	42,8626
514,50	42,8683
515,00	42,8888
515,50	42,8866
516,00	42,8807
516,50	42,8899
517,00	42,8853
517,50	42,8693
518,00	42,8810
518,50	42,8653
519,00	42,8710
519,50	42,8358
520,00	42,8499
520,50	42,8390
521,00	42,8481
521,50	42,8469
522,00	42,8688
522,50	42,8647
523,00	42,8684
523,50	42,8516
524,00	42,8704
524,50	42,8456
525,00	42,8679
525,50	42,8471
526,00	42,8377
526,50	42,8124
527,00	42,7981
527,50	42,7836
528,00	42,7780
528,50	42,7279
529,00	42,7120
529,50	42,6511
530,00	42,6000
530,50	42,5806
531,00	42,5512
531,50	42,5186
532,00	42,4942
532,50	42,4532
533,00	42,4461
533,50	42,4228
534,00	42,4280
534,50	42,4416
535,00	42,4368
535,50	42,4362
536,00	42,4390
536,50	42,4382
537,00	42,4417
537,50	42,4526
538,00	42,4761
538,50	42,4651
539,00	42,4460
539,50	42,4306
540,00	42,4501
540,50	42,4302
541,00	42,4255
541,50	42,4156
542,00	42,3950
542,50	42,3760
543,00	42,3794
543,50	42,4018
544,00	42,4085
544,50	42,3831
545,00	42,3881
545,50	42,3960
546,00	42,3994
546,50	42,4037
547,00	42,4145
547,50	42,4239
548,00	42,4212
548,50	42,4226
549,00	42,4145
549,50	42,4218
550,00	42,4127
550,50	42,4084
551,00	42,3971
551,50	42,3632
552,00	42,3594
552,50	42,3555
553,00	42,3464
553,50	42,3514
554,00	42,3406
554,50	42,3221
555,00	42,3320
555,50	42,3446
556,00	42,3390
556,50	42,3176
557,00	42,3013
557,50	42,2761
558,00	42,2598
558,50	42,2432
559,00	42,2568
559,50	42,2348
560,00	42,2177
560,50	42,2234
561,00	42,2139
561,50	42,2083
562,00	42,2107
562,50	42,2185
563,00	42,2048
563,50	42,1845
564,00	42,1727
564,50	42,1415
565,00	42,1245
565,50	42,1127
566,00	42,0989
566,50	42,0941
567,00	42,0934
567,50	42,0998
568,00	42,0981
568,50	42,1006
569,00	42,1055
569,50	42,1117
570,00	42,1245
570,50	42,1378
571,00	42,1232
571,50	42,1157
572,00	42,1098
572,50	42,1102
573,00	42,1182
573,50	42,1383
574,00	42,1337
574,50	42,1241
575,00	42,0966
575,50	42,0909
576,00	42,0992
576,50	42,1019
577,00	42,1060
577,50	42,0993
578,00	42,0895
578,50	42,0764
579,00	42,0839
579,50	42,0875
580,00	42,1018
580,50	42,0978
581,00	42,0883
581,50	42,1025
582,00	42,1020
582,50	42,1016
583,00	42,0963
583,50	42,0940
584,00	42,1243
584,50	42,1335
585,00	42,1393
585,50	42,1478
586,00	42,1458
586,50	42,1591
587,00	42,1728
587,50	42,2134
588,00	42,2283
588,50	42,2303
589,00	42,2469
589,50	42,2491
590,00	42,2608
590,50	42,2660
591,00	42,2606
591,50	42,2680
592,00	42,2546
592,50	42,2441
593,00	42,2317
593,50	42,2166
594,00	42,2078
594,50	42,2184
595,00	42,1959
595,50	42,1845
596,00	42,1794
596,50	42,1798
597,00	42,1978
597,50	42,1787
598,00	42,1817
598,50	42,1879
599,00	42,1748
599,50	42,1883
600,00	42,2049
