"pen_argset_otherB_front_spot3 - Storage 132222"
"Wavelength nm."	"R%"
185,00	398,3776
185,50	358,9864
186,00	316,7372
186,50	268,0418
187,00	226,9119
187,50	180,0289
188,00	166,2993
188,50	167,6205
189,00	136,8928
189,50	131,1209
190,00	124,4613
190,50	120,0280
191,00	121,7104
191,50	114,7301
192,00	114,8762
192,50	113,2609
193,00	107,5958
193,50	101,4779
194,00	99,1055
194,50	97,7098
195,00	96,2294
195,50	96,3986
196,00	95,5711
196,50	92,8879
197,00	91,7317
197,50	92,8151
198,00	93,0643
198,50	92,9207
199,00	92,4860
199,50	91,4565
200,00	89,4470
200,50	88,7503
201,00	89,7776
201,50	90,0629
202,00	88,7430
202,50	87,3773
203,00	86,6524
203,50	84,5659
204,00	84,2618
204,50	83,9366
205,00	83,6781
205,50	81,7436
206,00	80,4587
206,50	80,1827
207,00	79,9745
207,50	79,0668
208,00	79,0476
208,50	78,0180
209,00	76,4856
209,50	75,8520
210,00	75,8206
210,50	75,1111
211,00	73,5848
211,50	72,4136
212,00	71,5810
212,50	70,4120
213,00	69,6897
213,50	69,2732
214,00	68,2931
214,50	67,3380
215,00	66,9236
215,50	66,2165
216,00	65,9040
216,50	65,2662
217,00	64,6532
217,50	64,0210
218,00	63,2949
218,50	62,7695
219,00	62,1654
219,50	61,3957
220,00	61,1083
220,50	60,3934
221,00	60,1025
221,50	59,6553
222,00	59,2827
222,50	58,9308
223,00	58,7036
223,50	58,2126
224,00	57,5618
224,50	57,1672
225,00	56,7427
225,50	56,0666
226,00	55,7168
226,50	55,3524
227,00	54,9109
227,50	54,3882
228,00	53,9668
228,50	53,7867
229,00	53,2931
229,50	53,1085
230,00	52,9438
230,50	52,7365
231,00	52,4261
231,50	52,1422
232,00	51,9164
232,50	51,6989
233,00	51,4531
233,50	51,2627
234,00	50,8981
234,50	50,7290
235,00	50,4848
235,50	50,4123
236,00	50,2627
236,50	50,2636
237,00	50,1585
237,50	50,0753
238,00	49,9800
238,50	49,9514
239,00	49,7794
239,50	49,6084
240,00	49,4708
240,50	49,4592
241,00	49,2883
241,50	49,3708
242,00	49,3004
242,50	49,3291
243,00	49,3284
243,50	49,3726
244,00	49,3588
244,50	49,3254
245,00	49,1963
245,50	49,1962
246,00	49,0064
246,50	49,0063
247,00	48,8880
247,50	48,7968
248,00	48,7933
248,50	48,7478
249,00	48,7085
249,50	48,7143
250,00	48,7677
250,50	48,8664
251,00	48,9043
251,50	48,9898
252,00	49,0777
252,50	49,1119
253,00	49,2544
253,50	49,4035
254,00	49,5676
254,50	49,6268
255,00	49,6681
255,50	49,6727
256,00	49,7590
256,50	49,8254
257,00	49,8128
257,50	49,8850
258,00	49,9079
258,50	49,8574
259,00	49,8965
259,50	49,9939
260,00	50,0550
260,50	49,9954
261,00	50,0294
261,50	50,1683
262,00	50,1855
262,50	50,1500
263,00	50,2366
263,50	50,2170
264,00	50,1998
264,50	50,2341
265,00	50,3200
265,50	50,3727
266,00	50,4331
266,50	50,3558
267,00	50,3926
267,50	50,3241
268,00	50,3387
268,50	50,3157
269,00	50,2484
269,50	50,2554
270,00	50,2127
270,50	50,0964
271,00	50,1319
271,50	50,0944
272,00	50,1406
272,50	50,0918
273,00	50,0966
273,50	50,1290
274,00	50,1007
274,50	50,0201
275,00	50,0267
275,50	49,9291
276,00	49,8883
276,50	49,8462
277,00	49,7445
277,50	49,7007
278,00	49,6622
278,50	49,6578
279,00	49,6582
279,50	49,5928
280,00	49,6700
280,50	49,7064
281,00	49,7459
281,50	49,7814
282,00	49,7807
282,50	49,7440
283,00	49,5889
283,50	49,5058
284,00	49,5540
284,50	49,4527
285,00	49,4301
285,50	49,2784
286,00	49,2716
286,50	49,1533
287,00	49,0678
287,50	49,0905
288,00	49,1557
288,50	49,0320
289,00	48,9861
289,50	48,9736
290,00	48,9699
290,50	48,9058
291,00	48,8319
291,50	48,8359
292,00	48,8589
292,50	48,7830
293,00	48,7935
293,50	48,8410
294,00	48,7838
294,50	48,7559
295,00	48,7123
295,50	48,7069
296,00	48,6664
296,50	48,5880
297,00	48,4803
297,50	48,4351
298,00	48,4136
298,50	48,3620
299,00	48,4479
299,50	48,4307
300,00	48,5297
300,50	48,5086
301,00	48,4752
301,50	48,5357
302,00	48,5202
302,50	48,4725
303,00	48,4313
303,50	48,3646
304,00	48,3393
304,50	48,2523
305,00	48,2352
305,50	48,1913
306,00	48,1862
306,50	48,2740
307,00	48,2544
307,50	48,2387
308,00	48,2413
308,50	48,4129
309,00	48,5840
309,50	48,7441
310,00	48,9706
310,50	49,1524
311,00	49,2760
311,50	49,4165
312,00	49,5233
312,50	49,5692
313,00	49,5785
313,50	49,5741
314,00	49,5288
314,50	49,4649
315,00	49,4957
315,50	49,4727
316,00	49,4838
316,50	49,5487
317,00	49,5614
317,50	49,5624
318,00	49,5532
318,50	49,6180
319,00	49,6847
319,50	49,5763
320,00	49,4218
320,50	49,4441
321,00	49,4110
321,50	49,4377
322,00	49,4323
322,50	49,3832
323,00	49,3804
323,50	49,3447
324,00	49,3399
324,50	49,3988
325,00	49,3198
325,50	49,3086
326,00	49,2393
326,50	49,2089
327,00	49,2120
327,50	49,1102
328,00	49,0681
328,50	49,0809
329,00	49,0597
329,50	49,1247
330,00	49,1629
330,50	49,1269
331,00	49,1765
331,50	49,1498
332,00	49,2206
332,50	49,2534
333,00	49,2882
333,50	49,3327
334,00	49,3261
334,50	49,2352
335,00	49,3174
335,50	49,1725
336,00	49,2342
336,50	49,1727
337,00	49,1094
337,50	49,0546
338,00	48,9676
338,50	48,8604
339,00	48,9224
339,50	48,8027
340,00	48,8370
340,50	48,7455
341,00	48,7275
341,50	48,7636
342,00	48,7139
342,50	48,7241
343,00	48,6950
343,50	48,6749
344,00	48,7225
344,50	48,7322
345,00	48,7904
345,50	48,7868
346,00	48,6782
346,50	48,6089
347,00	48,5843
347,50	48,5844
348,00	48,5128
348,50	48,4242
349,00	48,3666
349,50	48,2462
350,00	48,1573
350,50	48,1879
351,00	48,1877
351,50	48,1824
352,00	48,1369
352,50	48,1449
353,00	48,1936
353,50	48,1996
354,00	48,1924
354,50	48,2430
355,00	48,1824
355,50	48,0940
356,00	47,9688
356,50	47,9581
357,00	47,8656
357,50	47,8433
358,00	47,7542
358,50	47,9344
359,00	48,0996
359,50	48,2792
360,00	48,5322
360,50	48,7905
361,00	48,9633
361,50	49,1186
362,00	49,2732
362,50	49,4328
363,00	49,4303
363,50	49,3192
364,00	49,2533
364,50	49,2293
365,00	49,1935
365,50	49,1601
366,00	49,1614
366,50	49,0767
367,00	49,1224
367,50	49,0981
368,00	49,1379
368,50	49,1599
369,00	49,0923
369,50	49,0789
370,00	49,0296
370,50	49,0195
371,00	49,0242
371,50	48,9708
372,00	48,9064
372,50	48,8857
373,00	48,8514
373,50	48,8675
374,00	48,8080
374,50	48,8000
375,00	48,7076
375,50	48,7186
376,00	48,6501
376,50	48,5840
377,00	48,4600
377,50	48,3242
378,00	48,1718
378,50	48,0130
379,00	47,8145
379,50	47,6370
380,00	47,4324
380,50	47,2366
381,00	47,0921
381,50	46,9077
382,00	46,7473
382,50	46,5388
383,00	46,3906
383,50	46,2606
384,00	46,1595
384,50	45,9862
385,00	45,8999
385,50	45,7825
386,00	45,7421
386,50	45,6663
387,00	45,6340
387,50	45,5757
388,00	45,5065
388,50	45,4771
389,00	45,4533
389,50	45,4049
390,00	45,3135
390,50	45,2488
391,00	45,2472
391,50	45,2124
392,00	45,1771
392,50	45,1662
393,00	45,0963
393,50	45,0604
394,00	45,0431
394,50	45,0603
395,00	45,0231
395,50	44,9562
396,00	44,9233
396,50	44,9186
397,00	44,9212
397,50	44,9512
398,00	44,9338
398,50	44,8812
399,00	44,8280
399,50	44,8710
400,00	44,8893
400,50	44,9193
401,00	44,9396
401,50	44,9345
402,00	44,9074
402,50	44,9099
403,00	44,9237
403,50	44,9466
404,00	44,8879
404,50	44,8669
405,00	44,8375
405,50	44,7965
406,00	44,7617
406,50	44,7532
407,00	44,7383
407,50	44,7418
408,00	44,7367
408,50	44,7352
409,00	44,6880
409,50	44,6955
410,00	44,6800
410,50	44,6823
411,00	44,6567
411,50	44,6336
412,00	44,5861
412,50	44,5569
413,00	44,5242
413,50	44,5568
414,00	44,5271
414,50	44,5319
415,00	44,5183
415,50	44,5124
416,00	44,4948
416,50	44,5023
417,00	44,4922
417,50	44,4945
418,00	44,4389
418,50	44,2996
419,00	44,1803
419,50	44,0630
420,00	43,9746
420,50	43,8677
421,00	43,7687
421,50	43,6821
422,00	43,5551
422,50	43,4835
423,00	43,4972
423,50	43,4775
424,00	43,4796
424,50	43,4589
425,00	43,4447
425,50	43,4332
426,00	43,4050
426,50	43,4020
427,00	43,3871
427,50	43,3995
428,00	43,4014
428,50	43,4012
429,00	43,3903
429,50	43,3985
430,00	43,3989
430,50	43,4029
431,00	43,4106
431,50	43,4207
432,00	43,4297
432,50	43,4272
433,00	43,4383
433,50	43,4530
434,00	43,4648
434,50	43,4431
435,00	43,4433
435,50	43,4516
436,00	43,4398
436,50	43,4167
437,00	43,4244
437,50	43,3827
438,00	43,3687
438,50	43,3504
439,00	43,3547
439,50	43,3298
440,00	43,2993
440,50	43,2990
441,00	43,2816
441,50	43,2803
442,00	43,2878
442,50	43,2680
443,00	43,2745
443,50	43,2790
444,00	43,2964
444,50	43,2838
445,00	43,2829
445,50	43,2960
446,00	43,2711
446,50	43,2802
447,00	43,3041
447,50	43,2979
448,00	43,3206
448,50	43,3127
449,00	43,3413
449,50	43,3511
450,00	43,3527
450,50	43,3755
451,00	43,3607
451,50	43,3371
452,00	43,3508
452,50	43,3366
453,00	43,3485
453,50	43,3385
454,00	43,3404
454,50	43,3492
455,00	43,3425
455,50	43,3524
456,00	43,3562
456,50	43,3478
457,00	43,3258
457,50	43,3090
458,00	43,3038
458,50	43,2792
459,00	43,2606
459,50	43,2522
460,00	43,2367
460,50	43,2238
461,00	43,2100
461,50	43,2186
462,00	43,2044
462,50	43,1921
463,00	43,1932
463,50	43,1522
464,00	43,1454
464,50	43,1464
465,00	43,1542
465,50	43,1452
466,00	43,1205
466,50	43,1216
467,00	43,1122
467,50	43,0719
468,00	43,0855
468,50	43,0678
469,00	43,0514
469,50	43,0380
470,00	43,0317
470,50	43,0246
471,00	43,0080
471,50	43,0009
472,00	43,0002
472,50	42,9987
473,00	42,9785
473,50	42,9701
474,00	42,9449
474,50	42,9272
475,00	42,9225
475,50	42,9184
476,00	42,9201
476,50	42,9083
477,00	42,8926
477,50	42,9087
478,00	42,8953
478,50	42,8888
479,00	42,8853
479,50	42,8677
480,00	42,8539
480,50	42,8369
481,00	42,8340
481,50	42,8408
482,00	42,8095
482,50	42,8235
483,00	42,8357
483,50	42,8359
484,00	42,8630
484,50	42,8644
485,00	42,8710
485,50	42,8787
486,00	42,8665
486,50	42,8978
487,00	42,8901
487,50	42,8796
488,00	42,8765
488,50	42,8639
489,00	42,8673
489,50	42,8640
490,00	42,8621
490,50	42,8640
491,00	42,8520
491,50	42,8538
492,00	42,8595
492,50	42,8395
493,00	42,8215
493,50	42,8145
494,00	42,8069
494,50	42,7997
495,00	42,8044
495,50	42,8063
496,00	42,7942
496,50	42,7943
497,00	42,8271
497,50	42,8387
498,00	42,8529
498,50	42,8521
499,00	42,8682
499,50	42,8579
500,00	42,8429
500,50	42,8488
501,00	42,8645
501,50	42,8591
502,00	42,8557
502,50	42,8523
503,00	42,8666
503,50	42,8605
504,00	42,8848
504,50	42,8875
505,00	42,8972
505,50	42,8668
506,00	42,8472
506,50	42,8515
507,00	42,8513
507,50	42,8201
508,00	42,8121
508,50	42,7868
509,00	42,7966
509,50	42,7812
510,00	42,7844
510,50	42,7821
511,00	42,7616
511,50	42,7401
512,00	42,7642
512,50	42,7752
513,00	42,7540
513,50	42,7354
514,00	42,7308
514,50	42,7418
515,00	42,7731
515,50	42,7725
516,00	42,7675
516,50	42,7557
517,00	42,7350
517,50	42,7458
518,00	42,7444
518,50	42,7291
519,00	42,7023
519,50	42,6808
520,00	42,6961
520,50	42,7106
521,00	42,7022
521,50	42,7303
522,00	42,7270
522,50	42,7303
523,00	42,7480
523,50	42,7447
524,00	42,7382
524,50	42,7262
525,00	42,7298
525,50	42,7219
526,00	42,6809
526,50	42,6752
527,00	42,6462
527,50	42,6320
528,00	42,6345
528,50	42,5826
529,00	42,5403
529,50	42,4886
530,00	42,4399
530,50	42,4087
531,00	42,3551
531,50	42,3437
532,00	42,3087
532,50	42,2723
533,00	42,2809
533,50	42,2772
534,00	42,2839
534,50	42,2939
535,00	42,2897
535,50	42,3063
536,00	42,2985
536,50	42,2850
537,00	42,2808
537,50	42,2910
538,00	42,2980
538,50	42,2837
539,00	42,2978
539,50	42,3178
540,00	42,3405
540,50	42,3359
541,00	42,3589
541,50	42,3537
542,00	42,3406
542,50	42,3263
543,00	42,3451
543,50	42,3255
544,00	42,3306
544,50	42,2929
545,00	42,2898
545,50	42,2806
546,00	42,2821
546,50	42,2761
547,00	42,2992
547,50	42,2663
548,00	42,2679
548,50	42,2627
549,00	42,2614
549,50	42,2672
550,00	42,2636
550,50	42,2498
551,00	42,2477
551,50	42,2203
552,00	42,2400
552,50	42,2348
553,00	42,2083
553,50	42,2205
554,00	42,2141
554,50	42,1805
555,00	42,1928
555,50	42,1906
556,00	42,1984
556,50	42,1888
557,00	42,1663
557,50	42,1501
558,00	42,1275
558,50	42,1033
559,00	42,1281
559,50	42,1144
560,00	42,1137
560,50	42,0829
561,00	42,0759
561,50	42,0808
562,00	42,0804
562,50	42,0921
563,00	42,0890
563,50	42,0685
564,00	42,0621
564,50	42,0299
565,00	42,0407
565,50	42,0226
566,00	42,0098
566,50	41,9991
567,00	41,9808
567,50	41,9842
568,00	41,9780
568,50	41,9640
569,00	41,9811
569,50	41,9755
570,00	41,9887
570,50	42,0027
571,00	41,9867
571,50	41,9866
572,00	41,9998
572,50	41,9830
573,00	41,9811
573,50	41,9836
574,00	41,9631
574,50	41,9384
575,00	41,9333
575,50	41,9706
576,00	41,9604
576,50	41,9470
577,00	41,9780
577,50	41,9848
578,00	41,9797
578,50	41,9866
579,00	42,0059
579,50	41,9957
580,00	41,9807
580,50	41,9928
581,00	41,9869
581,50	41,9851
582,00	41,9970
582,50	41,9878
583,00	41,9876
583,50	41,9860
584,00	42,0301
584,50	42,0303
585,00	42,0328
585,50	42,0470
586,00	42,0579
586,50	42,0555
587,00	42,0596
587,50	42,0973
588,00	42,0997
588,50	42,0916
589,00	42,1172
589,50	42,1207
590,00	42,1335
590,50	42,1351
591,00	42,1527
591,50	42,1676
592,00	42,1514
592,50	42,1531
593,00	42,1465
593,50	42,1357
594,00	42,1281
594,50	42,1182
595,00	42,1118
595,50	42,1052
596,00	42,1063
596,50	42,1127
597,00	42,1135
597,50	42,1124
598,00	42,1055
598,50	42,1122
599,00	42,1047
599,50	42,0978
600,00	42,0883
