"pen_argset_B_back_spot2 - Storage 125738"
"Wavelength nm."	"R%"
185,00	282,4796
185,50	252,8377
186,00	225,0605
186,50	189,5091
187,00	159,0434
187,50	129,9413
188,00	130,3063
188,50	132,5100
189,00	127,5409
189,50	119,9914
190,00	116,8572
190,50	114,3613
191,00	117,6789
191,50	116,6406
192,00	113,9381
192,50	106,9638
193,00	104,4989
193,50	100,7849
194,00	98,2451
194,50	98,6650
195,00	96,5292
195,50	96,6160
196,00	95,0173
196,50	93,9398
197,00	92,8797
197,50	92,4374
198,00	91,8478
198,50	91,3851
199,00	91,1622
199,50	89,9536
200,00	89,3003
200,50	89,1057
201,00	88,5856
201,50	89,3008
202,00	88,0262
202,50	87,4173
203,00	87,4606
203,50	85,6462
204,00	84,9997
204,50	84,1130
205,00	83,3632
205,50	82,2257
206,00	80,7648
206,50	80,8882
207,00	80,0631
207,50	79,0197
208,00	78,9658
208,50	78,0031
209,00	76,8191
209,50	75,7823
210,00	75,6711
210,50	74,8427
211,00	73,4269
211,50	72,6002
212,00	71,6379
212,50	70,4297
213,00	70,1186
213,50	69,4058
214,00	68,6561
214,50	67,3242
215,00	66,8674
215,50	66,2220
216,00	65,6499
216,50	65,1789
217,00	64,3896
217,50	63,5149
218,00	62,7578
218,50	62,2367
219,00	61,6656
219,50	60,9743
220,00	60,4460
220,50	60,2928
221,00	59,6573
221,50	59,2620
222,00	59,0419
222,50	58,5746
223,00	58,1890
223,50	57,7751
224,00	57,2694
224,50	56,8318
225,00	56,1957
225,50	55,7628
226,00	55,3522
226,50	54,7768
227,00	54,3937
227,50	53,9436
228,00	53,7524
228,50	53,5051
229,00	53,1699
229,50	52,8693
230,00	52,6700
230,50	52,6095
231,00	52,3213
231,50	52,1532
232,00	51,8202
232,50	51,5696
233,00	51,4062
233,50	51,2185
234,00	51,0019
234,50	50,7519
235,00	50,5551
235,50	50,5597
236,00	50,3083
236,50	50,2818
237,00	50,0379
237,50	49,7988
238,00	49,6155
238,50	49,4317
239,00	49,3482
239,50	49,2252
240,00	49,0296
240,50	49,0549
241,00	48,9244
241,50	48,9264
242,00	48,9568
242,50	49,0235
243,00	49,0389
243,50	49,0437
244,00	49,0464
244,50	49,0500
245,00	48,8618
245,50	48,8499
246,00	48,8518
246,50	48,7877
247,00	48,7864
247,50	48,7020
248,00	48,6801
248,50	48,5671
249,00	48,5321
249,50	48,5564
250,00	48,6529
250,50	48,7476
251,00	48,8002
251,50	48,8552
252,00	49,0250
252,50	49,0440
253,00	49,2205
253,50	49,3774
254,00	49,5773
254,50	49,6327
255,00	49,6519
255,50	49,6943
256,00	49,6939
256,50	49,7406
257,00	49,8115
257,50	49,8503
258,00	49,8374
258,50	49,8067
259,00	49,8119
259,50	49,8143
260,00	49,9333
260,50	50,0337
261,00	50,0819
261,50	50,1247
262,00	50,1930
262,50	50,1618
263,00	50,3190
263,50	50,3603
264,00	50,3908
264,50	50,3652
265,00	50,2993
265,50	50,2887
266,00	50,2781
266,50	50,2601
267,00	50,3744
267,50	50,2413
268,00	50,2041
268,50	50,2066
269,00	50,2345
269,50	50,2552
270,00	50,2944
270,50	50,3090
271,00	50,2254
271,50	50,1634
272,00	50,2107
272,50	50,2192
273,00	50,2000
273,50	50,1162
274,00	50,1135
274,50	50,0796
275,00	50,0424
275,50	50,0422
276,00	50,0389
276,50	49,9911
277,00	49,8764
277,50	49,8917
278,00	49,8256
278,50	49,8128
279,00	49,7187
279,50	49,6658
280,00	49,6562
280,50	49,6226
281,00	49,6070
281,50	49,6273
282,00	49,5013
282,50	49,4461
283,00	49,2912
283,50	49,2965
284,00	49,3536
284,50	49,2811
285,00	49,1772
285,50	49,0765
286,00	49,0325
286,50	48,9811
287,00	48,9743
287,50	48,9920
288,00	48,9629
288,50	48,8718
289,00	48,8003
289,50	48,8515
290,00	48,8045
290,50	48,7054
291,00	48,6937
291,50	48,6708
292,00	48,7010
292,50	48,6361
293,00	48,5448
293,50	48,5909
294,00	48,6202
294,50	48,6135
295,00	48,6648
295,50	48,6567
296,00	48,5922
296,50	48,5306
297,00	48,4756
297,50	48,4974
298,00	48,4444
298,50	48,3315
299,00	48,4024
299,50	48,3828
300,00	48,4007
300,50	48,3894
301,00	48,3555
301,50	48,4361
302,00	48,4080
302,50	48,3491
303,00	48,3274
303,50	48,2075
304,00	48,1926
304,50	48,2112
305,00	48,2975
305,50	48,2869
306,00	48,2242
306,50	48,1706
307,00	48,2130
307,50	48,2187
308,00	48,3399
308,50	48,5127
309,00	48,6604
309,50	48,7238
310,00	48,8130
310,50	48,9936
311,00	49,2452
311,50	49,3652
312,00	49,5132
312,50	49,6075
313,00	49,5642
313,50	49,5626
314,00	49,5406
314,50	49,6378
315,00	49,4852
315,50	49,4725
316,00	49,4486
316,50	49,4485
317,00	49,4202
317,50	49,5174
318,00	49,4010
318,50	49,4266
319,00	49,3952
319,50	49,5140
320,00	49,4301
320,50	49,4504
321,00	49,4565
321,50	49,4559
322,00	49,3655
322,50	49,3689
323,00	49,4382
323,50	49,4162
324,00	49,3055
324,50	49,3341
325,00	49,3372
325,50	49,2722
326,00	49,2126
326,50	49,1714
327,00	49,1940
327,50	49,0373
328,00	49,0429
328,50	49,0518
329,00	48,9830
329,50	49,0537
330,00	49,0869
330,50	49,0700
331,00	49,0895
331,50	49,0317
332,00	49,0886
332,50	49,0322
333,00	49,1017
333,50	49,1510
334,00	49,0635
334,50	49,0096
335,00	49,0120
335,50	48,9833
336,00	48,9821
336,50	48,9509
337,00	48,9009
337,50	48,8115
338,00	48,7685
338,50	48,7386
339,00	48,7810
339,50	48,7452
340,00	48,7349
340,50	48,7861
341,00	48,7682
341,50	48,8119
342,00	48,8224
342,50	48,8276
343,00	48,8245
343,50	48,7706
344,00	48,7783
344,50	48,7492
345,00	48,7325
345,50	48,7862
346,00	48,7139
346,50	48,6734
347,00	48,5816
347,50	48,5672
348,00	48,5188
348,50	48,4588
349,00	48,3745
349,50	48,2574
350,00	48,1460
350,50	48,1713
351,00	48,1482
351,50	48,1284
352,00	48,0135
352,50	47,9971
353,00	48,0008
353,50	48,0449
354,00	47,9612
354,50	47,9528
355,00	47,9482
355,50	47,9109
356,00	47,8650
356,50	47,8872
357,00	47,8326
357,50	47,8318
358,00	47,7408
358,50	47,9960
359,00	48,1203
359,50	48,2479
360,00	48,4240
360,50	48,6323
361,00	48,7636
361,50	49,0040
362,00	49,1598
362,50	49,3441
363,00	49,3303
363,50	49,2936
364,00	49,2356
364,50	49,1897
365,00	49,1841
365,50	49,1611
366,00	49,0752
366,50	48,9693
367,00	48,9763
367,50	48,9674
368,00	48,9945
368,50	49,0124
369,00	48,9701
369,50	48,9079
370,00	48,9499
370,50	48,9973
371,00	49,0087
371,50	48,9893
372,00	48,9258
372,50	48,9044
373,00	48,8624
373,50	48,9002
374,00	48,8819
374,50	48,8337
375,00	48,7399
375,50	48,7226
376,00	48,6730
376,50	48,5847
377,00	48,5080
377,50	48,3601
378,00	48,2035
378,50	48,0008
379,00	47,8144
379,50	47,6052
380,00	47,4051
380,50	47,2150
381,00	47,0649
381,50	46,8772
382,00	46,7629
382,50	46,5905
383,00	46,4751
383,50	46,3353
384,00	46,2008
384,50	46,1089
385,00	45,9870
385,50	45,8732
386,00	45,7648
386,50	45,6519
387,00	45,5617
387,50	45,5228
388,00	45,4739
388,50	45,4931
389,00	45,4469
389,50	45,3774
390,00	45,3416
390,50	45,2809
391,00	45,2668
391,50	45,2826
392,00	45,2377
392,50	45,2024
393,00	45,1381
393,50	45,0570
394,00	45,0800
394,50	45,0636
395,00	45,0699
395,50	45,0328
396,00	45,0014
396,50	44,9951
397,00	45,0041
397,50	45,0255
398,00	45,0640
398,50	45,0312
399,00	45,0258
399,50	45,0481
400,00	45,0608
400,50	45,0674
401,00	45,0909
401,50	45,0810
402,00	45,0483
402,50	45,0334
403,00	44,9896
403,50	44,9842
404,00	44,9637
404,50	44,9471
405,00	44,8978
405,50	44,8449
406,00	44,8256
406,50	44,7935
407,00	44,8034
407,50	44,8240
408,00	44,7827
408,50	44,7541
409,00	44,7162
409,50	44,7208
410,00	44,7121
410,50	44,6610
411,00	44,6833
411,50	44,6327
412,00	44,6119
412,50	44,5973
413,00	44,5659
413,50	44,5777
414,00	44,5812
414,50	44,5842
415,00	44,6000
415,50	44,5707
416,00	44,5377
416,50	44,5506
417,00	44,5437
417,50	44,5459
418,00	44,5210
418,50	44,3726
419,00	44,2612
419,50	44,1613
420,00	44,0295
420,50	43,9512
421,00	43,8249
421,50	43,7160
422,00	43,6210
422,50	43,5205
423,00	43,5282
423,50	43,5121
424,00	43,5134
424,50	43,5259
425,00	43,5112
425,50	43,5018
426,00	43,4915
426,50	43,4926
427,00	43,5059
427,50	43,5097
428,00	43,5029
428,50	43,4910
429,00	43,4913
429,50	43,4937
430,00	43,4803
430,50	43,4811
431,00	43,4830
431,50	43,4928
432,00	43,5166
432,50	43,5251
433,00	43,5120
433,50	43,5138
434,00	43,5314
434,50	43,5419
435,00	43,5670
435,50	43,5636
436,00	43,5315
436,50	43,5081
437,00	43,5046
437,50	43,5107
438,00	43,5061
438,50	43,4817
439,00	43,4887
439,50	43,4659
440,00	43,4411
440,50	43,4795
441,00	43,4745
441,50	43,4884
442,00	43,4795
442,50	43,4573
443,00	43,4510
443,50	43,4323
444,00	43,4343
444,50	43,4207
445,00	43,3754
445,50	43,3899
446,00	43,3626
446,50	43,3505
447,00	43,3741
447,50	43,4011
448,00	43,4268
448,50	43,4110
449,00	43,4150
449,50	43,4366
450,00	43,4112
450,50	43,4207
451,00	43,4258
451,50	43,4334
452,00	43,4259
452,50	43,4116
453,00	43,4327
453,50	43,4216
454,00	43,3989
454,50	43,4117
455,00	43,4068
455,50	43,4119
456,00	43,3780
456,50	43,3696
457,00	43,3677
457,50	43,3326
458,00	43,3335
458,50	43,3514
459,00	43,3399
459,50	43,3468
460,00	43,3402
460,50	43,3341
461,00	43,3117
461,50	43,2923
462,00	43,2962
462,50	43,2761
463,00	43,2435
463,50	43,2255
464,00	43,1945
464,50	43,1724
465,00	43,1761
465,50	43,1755
466,00	43,1612
466,50	43,1332
467,00	43,1281
467,50	43,1249
468,00	43,1183
468,50	43,1062
469,00	43,0864
469,50	43,0822
470,00	43,0758
470,50	43,0620
471,00	43,0707
471,50	43,0762
472,00	43,0551
472,50	43,0624
473,00	43,0391
473,50	43,0368
474,00	43,0125
474,50	42,9819
475,00	42,9953
475,50	42,9827
476,00	42,9745
476,50	42,9740
477,00	42,9521
477,50	42,9588
478,00	42,9652
478,50	42,9583
479,00	42,9559
479,50	42,9513
480,00	42,9574
480,50	42,9592
481,00	42,9746
481,50	42,9718
482,00	42,9640
482,50	42,9467
483,00	42,9390
483,50	42,9250
484,00	42,9305
484,50	42,9334
485,00	42,9164
485,50	42,8936
486,00	42,8898
486,50	42,9095
487,00	42,9284
487,50	42,9416
488,00	42,9608
488,50	42,9497
489,00	42,9403
489,50	42,9586
490,00	42,9816
490,50	42,9941
491,00	42,9859
491,50	42,9724
492,00	42,9650
492,50	42,9726
493,00	42,9709
493,50	42,9395
494,00	42,9228
494,50	42,8965
495,00	42,8862
495,50	42,8772
496,00	42,8723
496,50	42,8800
497,00	42,8927
497,50	42,8826
498,00	42,9217
498,50	42,9221
499,00	42,9504
499,50	42,9516
500,00	42,9413
500,50	42,9559
501,00	42,9464
501,50	42,9245
502,00	42,9185
502,50	42,9038
503,00	42,9099
503,50	42,8876
504,00	42,9151
504,50	42,9365
505,00	42,9160
505,50	42,8893
506,00	42,9031
506,50	42,9223
507,00	42,9355
507,50	42,9146
508,00	42,9121
508,50	42,8690
509,00	42,8445
509,50	42,8449
510,00	42,8459
510,50	42,8259
511,00	42,8111
511,50	42,7866
512,00	42,8066
512,50	42,7926
513,00	42,7782
513,50	42,7952
514,00	42,7915
514,50	42,8153
515,00	42,8300
515,50	42,8025
516,00	42,7835
516,50	42,7678
517,00	42,7620
517,50	42,7856
518,00	42,7862
518,50	42,7819
519,00	42,7800
519,50	42,7426
520,00	42,7703
520,50	42,7850
521,00	42,8108
521,50	42,8139
522,00	42,7964
522,50	42,7866
523,00	42,7878
523,50	42,7723
524,00	42,8083
524,50	42,7814
525,00	42,7737
525,50	42,7252
526,00	42,7157
526,50	42,7114
527,00	42,6887
527,50	42,6550
528,00	42,6440
528,50	42,5943
529,00	42,5604
529,50	42,5204
530,00	42,4868
530,50	42,4716
531,00	42,4090
531,50	42,4020
532,00	42,3775
532,50	42,3510
533,00	42,3430
533,50	42,3426
534,00	42,3406
534,50	42,3395
535,00	42,3175
535,50	42,3326
536,00	42,3141
536,50	42,3345
537,00	42,3407
537,50	42,3343
538,00	42,3460
538,50	42,3519
539,00	42,3589
539,50	42,3638
540,00	42,3772
540,50	42,3620
541,00	42,3462
541,50	42,3327
542,00	42,3418
542,50	42,3362
543,00	42,3464
543,50	42,3549
544,00	42,3689
544,50	42,3542
545,00	42,3554
545,50	42,3487
546,00	42,3587
546,50	42,3507
547,00	42,3529
547,50	42,3233
548,00	42,3133
548,50	42,3027
549,00	42,2977
549,50	42,3033
550,00	42,2959
550,50	42,2711
551,00	42,2507
551,50	42,2319
552,00	42,2589
552,50	42,2438
553,00	42,2193
553,50	42,2339
554,00	42,2382
554,50	42,2445
555,00	42,2753
555,50	42,2911
556,00	42,2828
556,50	42,2586
557,00	42,2410
557,50	42,2333
558,00	42,2071
558,50	42,1901
559,00	42,1973
559,50	42,1913
560,00	42,1693
560,50	42,1725
561,00	42,1653
561,50	42,1560
562,00	42,1529
562,50	42,1561
563,00	42,1532
563,50	42,1345
564,00	42,1060
564,50	42,0841
565,00	42,0748
565,50	42,0736
566,00	42,0721
566,50	42,0575
567,00	42,0527
567,50	42,0412
568,00	42,0584
568,50	42,0507
569,00	42,0564
569,50	42,0536
570,00	42,0530
570,50	42,0648
571,00	42,0820
571,50	42,0736
572,00	42,0761
572,50	42,0319
573,00	42,0292
573,50	42,0336
574,00	42,0182
574,50	42,0150
575,00	42,0158
575,50	41,9983
576,00	41,9940
576,50	41,9894
577,00	42,0018
577,50	42,0022
578,00	42,0004
578,50	42,0046
579,00	42,0124
579,50	41,9993
580,00	42,0169
580,50	42,0271
581,00	42,0274
581,50	42,0365
582,00	42,0302
582,50	42,0366
583,00	42,0379
583,50	42,0504
584,00	42,0895
584,50	42,0787
585,00	42,0907
585,50	42,0858
586,00	42,1056
586,50	42,1080
587,00	42,1223
587,50	42,1470
588,00	42,1293
588,50	42,1158
589,00	42,1323
589,50	42,1171
590,00	42,1213
590,50	42,1383
591,00	42,1453
591,50	42,1503
592,00	42,1406
592,50	42,1511
593,00	42,1635
593,50	42,1638
594,00	42,1723
594,50	42,2000
595,00	42,1927
595,50	42,1945
596,00	42,1715
596,50	42,1729
597,00	42,1651
597,50	42,1489
598,00	42,1479
598,50	42,1507
599,00	42,1339
599,50	42,1164
600,00	42,1231
