"PEN_Q53_UZH_spot3 - Storage 135542"
"Wavelength nm."	"R%"
185,00	260,8688
185,50	241,3127
186,00	228,8362
186,50	210,7546
187,00	203,9823
187,50	186,9404
188,00	148,4293
188,50	146,9644
189,00	139,9118
189,50	122,0151
190,00	123,8904
190,50	118,9702
191,00	120,5660
191,50	109,5139
192,00	109,3551
192,50	102,9396
193,00	100,1357
193,50	97,5888
194,00	95,7487
194,50	96,6356
195,00	95,5959
195,50	94,2162
196,00	92,7781
196,50	90,5010
197,00	90,1543
197,50	89,5999
198,00	88,9389
198,50	87,6498
199,00	85,7166
199,50	84,5717
200,00	83,3084
200,50	82,9434
201,00	82,9047
201,50	83,1396
202,00	81,9442
202,50	80,2840
203,00	79,5645
203,50	78,1128
204,00	77,6422
204,50	76,7487
205,00	76,2593
205,50	75,5231
206,00	73,9224
206,50	73,9326
207,00	73,6893
207,50	73,7548
208,00	74,0963
208,50	73,4383
209,00	72,8501
209,50	72,3673
210,00	72,0233
210,50	71,2421
211,00	69,3814
211,50	68,5178
212,00	67,3426
212,50	65,9766
213,00	65,5014
213,50	64,8342
214,00	63,8532
214,50	63,1829
215,00	62,6851
215,50	62,4626
216,00	61,9621
216,50	61,6649
217,00	60,8251
217,50	60,1352
218,00	59,4500
218,50	59,0235
219,00	58,3338
219,50	57,7402
220,00	57,2065
220,50	56,8465
221,00	56,2975
221,50	56,0814
222,00	55,7391
222,50	55,2665
223,00	55,1833
223,50	54,6850
224,00	54,2371
224,50	53,9785
225,00	53,3578
225,50	52,8571
226,00	52,3914
226,50	51,9481
227,00	51,6253
227,50	51,0112
228,00	50,7595
228,50	50,5125
229,00	50,1364
229,50	49,9878
230,00	49,8471
230,50	49,7910
231,00	49,6642
231,50	49,6124
232,00	49,3580
232,50	49,0797
233,00	48,8545
233,50	48,7257
234,00	48,6374
234,50	48,4755
235,00	48,3240
235,50	48,2315
236,00	48,0068
236,50	48,0543
237,00	47,9602
237,50	47,8419
238,00	47,6901
238,50	47,5446
239,00	47,4816
239,50	47,2830
240,00	47,0899
240,50	47,0873
241,00	46,8939
241,50	46,9729
242,00	47,0029
242,50	47,0671
243,00	47,0918
243,50	47,0646
244,00	47,1530
244,50	47,2553
245,00	47,1453
245,50	47,2544
246,00	47,2275
246,50	47,2235
247,00	47,2019
247,50	47,0937
248,00	47,2346
248,50	47,2887
249,00	47,2358
249,50	47,3520
250,00	47,3888
250,50	47,3723
251,00	47,3611
251,50	47,4664
252,00	47,5928
252,50	47,5646
253,00	47,6405
253,50	47,8024
254,00	47,9315
254,50	48,1024
255,00	48,3158
255,50	48,5184
256,00	48,6423
256,50	48,7363
257,00	48,8207
257,50	48,9266
258,00	49,0761
258,50	49,1624
259,00	49,1463
259,50	49,1444
260,00	49,2175
260,50	49,1969
261,00	49,2776
261,50	49,3660
262,00	49,4170
262,50	49,2965
263,00	49,3598
263,50	49,4263
264,00	49,4308
264,50	49,4452
265,00	49,5223
265,50	49,4949
266,00	49,4717
266,50	49,4360
267,00	49,4587
267,50	49,4417
268,00	49,4284
268,50	49,4365
269,00	49,3413
269,50	49,3310
270,00	49,3532
270,50	49,2837
271,00	49,2641
271,50	49,2748
272,00	49,2040
272,50	49,1054
273,00	49,1283
273,50	49,1802
274,00	49,1343
274,50	49,0841
275,00	49,1197
275,50	49,0164
276,00	49,0267
276,50	49,0290
277,00	48,9444
277,50	48,8676
278,00	48,7524
278,50	48,7238
279,00	48,6426
279,50	48,5819
280,00	48,6080
280,50	48,5149
281,00	48,4536
281,50	48,4493
282,00	48,4935
282,50	48,5256
283,00	48,3633
283,50	48,3819
284,00	48,4808
284,50	48,3900
285,00	48,3287
285,50	48,2678
286,00	48,2594
286,50	48,1273
287,00	48,0608
287,50	48,0651
288,00	48,0843
288,50	47,9173
289,00	47,9639
289,50	48,0500
290,00	48,0414
290,50	48,0348
291,00	48,0232
291,50	48,0614
292,00	48,0418
292,50	47,9297
293,00	47,9405
293,50	47,9971
294,00	47,8981
294,50	47,8592
295,00	47,8378
295,50	47,8149
296,00	47,7088
296,50	47,7125
297,00	47,6884
297,50	47,6977
298,00	47,6057
298,50	47,5414
299,00	47,5744
299,50	47,5446
300,00	47,6171
300,50	47,5435
301,00	47,4676
301,50	47,5536
302,00	47,5122
302,50	47,5208
303,00	47,5397
303,50	47,5019
304,00	47,4922
304,50	47,4548
305,00	47,6023
305,50	47,6422
306,00	47,6000
306,50	47,7349
307,00	47,6708
307,50	47,7006
308,00	47,7802
308,50	48,0331
309,00	48,1673
309,50	48,2999
310,00	48,4556
310,50	48,6640
311,00	48,8097
311,50	48,9913
312,00	49,1033
312,50	49,2388
313,00	49,1013
313,50	49,1711
314,00	49,1568
314,50	49,2184
315,00	49,1709
315,50	49,0747
316,00	49,1234
316,50	49,1700
317,00	49,1917
317,50	49,3624
318,00	49,2689
318,50	49,3290
319,00	49,3163
319,50	49,3374
320,00	49,2965
320,50	49,2449
321,00	49,2248
321,50	49,1931
322,00	49,0846
322,50	49,1380
323,00	49,1693
323,50	49,1563
324,00	49,0909
324,50	49,1076
325,00	49,1520
325,50	49,1039
326,00	49,0823
326,50	49,0695
327,00	49,0360
327,50	48,8712
328,00	48,8280
328,50	48,8516
329,00	48,8075
329,50	48,7894
330,00	48,8290
330,50	48,7510
331,00	48,7590
331,50	48,7430
332,00	48,7957
332,50	48,8257
333,00	48,8336
333,50	48,8018
334,00	48,8115
334,50	48,7585
335,00	48,8171
335,50	48,7572
336,00	48,7374
336,50	48,6522
337,00	48,6017
337,50	48,5460
338,00	48,5789
338,50	48,4735
339,00	48,4836
339,50	48,3617
340,00	48,3579
340,50	48,3439
341,00	48,3361
341,50	48,3154
342,00	48,2804
342,50	48,2108
343,00	48,2339
343,50	48,1718
344,00	48,1945
344,50	48,1315
345,00	48,0838
345,50	48,1114
346,00	48,1082
346,50	48,0726
347,00	48,0759
347,50	48,0252
348,00	48,0740
348,50	48,0588
349,00	48,0478
349,50	48,0131
350,00	48,0035
350,50	47,9351
351,00	47,8943
351,50	47,8624
352,00	47,8179
352,50	47,7903
353,00	47,7901
353,50	47,7917
354,00	47,7994
354,50	47,7554
355,00	47,7468
355,50	47,7088
356,00	47,6460
356,50	47,6836
357,00	47,5783
357,50	47,5555
358,00	47,4485
358,50	47,5726
359,00	47,7090
359,50	47,8549
360,00	48,0228
360,50	48,2267
361,00	48,3307
361,50	48,5194
362,00	48,6996
362,50	48,9546
363,00	48,9776
363,50	48,9644
364,00	48,9660
364,50	48,9374
365,00	48,9461
365,50	48,9442
366,00	48,9534
366,50	48,8491
367,00	48,8390
367,50	48,8209
368,00	48,8001
368,50	48,7993
369,00	48,8149
369,50	48,8006
370,00	48,7453
370,50	48,7343
371,00	48,7212
371,50	48,6584
372,00	48,5775
372,50	48,4643
373,00	48,3840
373,50	48,3308
374,00	48,1679
374,50	48,0943
375,00	47,9122
375,50	47,8336
376,00	47,7020
376,50	47,5452
377,00	47,4458
377,50	47,2594
378,00	47,0229
378,50	46,8463
379,00	46,6320
379,50	46,4376
380,00	46,2091
380,50	46,0526
381,00	45,8879
381,50	45,7340
382,00	45,6328
382,50	45,5192
383,00	45,4328
383,50	45,3204
384,00	45,2498
384,50	45,1990
385,00	45,0909
385,50	45,0476
386,00	44,9724
386,50	44,8730
387,00	44,8287
387,50	44,7520
388,00	44,7356
388,50	44,7182
389,00	44,6843
389,50	44,6640
390,00	44,6162
390,50	44,5873
391,00	44,5746
391,50	44,5539
392,00	44,5363
392,50	44,5174
393,00	44,4751
393,50	44,4556
394,00	44,4550
394,50	44,4391
395,00	44,4184
395,50	44,4195
396,00	44,4178
396,50	44,4534
397,00	44,4421
397,50	44,4774
398,00	44,4776
398,50	44,4239
399,00	44,4293
399,50	44,4295
400,00	44,4158
400,50	44,4106
401,00	44,3632
401,50	44,3497
402,00	44,2979
402,50	44,2835
403,00	44,2933
403,50	44,2867
404,00	44,3018
404,50	44,3011
405,00	44,2726
405,50	44,2630
406,00	44,2712
406,50	44,2626
407,00	44,2557
407,50	44,2661
408,00	44,2419
408,50	44,2132
409,00	44,1615
409,50	44,1621
410,00	44,1888
410,50	44,1729
411,00	44,1418
411,50	44,1125
412,00	44,0966
412,50	44,0721
413,00	44,0517
413,50	44,0553
414,00	44,0467
414,50	43,9976
415,00	43,9805
415,50	43,9915
416,00	43,9733
416,50	43,9368
417,00	43,9293
417,50	43,9097
418,00	43,9003
418,50	43,7917
419,00	43,6813
419,50	43,5713
420,00	43,4740
420,50	43,3776
421,00	43,2882
421,50	43,1951
422,00	43,0773
422,50	43,0050
423,00	42,9879
423,50	42,9719
424,00	42,9752
424,50	42,9551
425,00	42,9640
425,50	42,9420
426,00	42,9105
426,50	42,9282
427,00	42,8909
427,50	42,9110
428,00	42,9096
428,50	42,9108
429,00	42,9258
429,50	42,9226
430,00	42,9482
430,50	42,9457
431,00	42,9573
431,50	42,9864
432,00	42,9975
432,50	43,0240
433,00	42,9925
433,50	42,9875
434,00	42,9695
434,50	42,9526
435,00	42,9852
435,50	42,9770
436,00	42,9475
436,50	42,9356
437,00	42,9207
437,50	42,9524
438,00	42,9461
438,50	42,9425
439,00	42,9421
439,50	42,9006
440,00	42,8727
440,50	42,8913
441,00	42,8805
441,50	42,8902
442,00	42,8697
442,50	42,8775
443,00	42,8821
443,50	42,8792
444,00	42,8731
444,50	42,8751
445,00	42,8693
445,50	42,8746
446,00	42,8581
446,50	42,8679
447,00	42,8871
447,50	42,8970
448,00	42,9038
448,50	42,9269
449,00	42,9475
449,50	42,9405
450,00	42,9372
450,50	42,9592
451,00	42,9534
451,50	42,9438
452,00	42,9493
452,50	42,9468
453,00	42,9509
453,50	42,9295
454,00	42,9338
454,50	42,9356
455,00	42,9184
455,50	42,9058
456,00	42,8724
456,50	42,8547
457,00	42,8532
457,50	42,8633
458,00	42,8863
458,50	42,9023
459,00	42,9005
459,50	42,9165
460,00	42,9372
460,50	42,9310
461,00	42,9227
461,50	42,9110
462,00	42,9010
462,50	42,8651
463,00	42,8204
463,50	42,7822
464,00	42,7523
464,50	42,7165
465,00	42,7218
465,50	42,7146
466,00	42,6993
466,50	42,6754
467,00	42,6686
467,50	42,6790
468,00	42,6760
468,50	42,6722
469,00	42,6675
469,50	42,6757
470,00	42,6790
470,50	42,6840
471,00	42,6746
471,50	42,6685
472,00	42,6395
472,50	42,6491
473,00	42,6279
473,50	42,6133
474,00	42,5705
474,50	42,5455
475,00	42,5385
475,50	42,5393
476,00	42,5433
476,50	42,5425
477,00	42,5346
477,50	42,5498
478,00	42,5551
478,50	42,5505
479,00	42,5559
479,50	42,5385
480,00	42,5436
480,50	42,5365
481,00	42,5294
481,50	42,5307
482,00	42,5178
482,50	42,5292
483,00	42,5515
483,50	42,5385
484,00	42,5620
484,50	42,5370
485,00	42,5504
485,50	42,5641
486,00	42,5595
486,50	42,5608
487,00	42,5443
487,50	42,5382
488,00	42,5675
488,50	42,5587
489,00	42,5699
489,50	42,5732
490,00	42,5616
490,50	42,5401
491,00	42,5370
491,50	42,5273
492,00	42,5283
492,50	42,5060
493,00	42,4730
493,50	42,4709
494,00	42,4543
494,50	42,4733
495,00	42,5054
495,50	42,5012
496,00	42,5135
496,50	42,5270
497,00	42,5522
497,50	42,5738
498,00	42,5806
498,50	42,5806
499,00	42,5898
499,50	42,5722
500,00	42,5782
500,50	42,5757
501,00	42,5487
501,50	42,5236
502,00	42,5257
502,50	42,5239
503,00	42,5103
503,50	42,4813
504,00	42,4883
504,50	42,4798
505,00	42,4625
505,50	42,4703
506,00	42,4750
506,50	42,4660
507,00	42,4573
507,50	42,4427
508,00	42,4422
508,50	42,4246
509,00	42,4388
509,50	42,4609
510,00	42,4462
510,50	42,4293
511,00	42,4397
511,50	42,4176
512,00	42,4450
512,50	42,4402
513,00	42,4520
513,50	42,4396
514,00	42,4314
514,50	42,4348
515,00	42,4541
515,50	42,4438
516,00	42,4613
516,50	42,4543
517,00	42,4553
517,50	42,4540
518,00	42,4516
518,50	42,4524
519,00	42,4682
519,50	42,4396
520,00	42,4497
520,50	42,4468
521,00	42,4375
521,50	42,4150
522,00	42,3922
522,50	42,3902
523,00	42,3748
523,50	42,3596
524,00	42,3714
524,50	42,3469
525,00	42,3364
525,50	42,3188
526,00	42,3424
526,50	42,3162
527,00	42,3138
527,50	42,2841
528,00	42,2719
528,50	42,2446
529,00	42,2153
529,50	42,1864
530,00	42,1462
530,50	42,1167
531,00	42,0774
531,50	42,0386
532,00	42,0261
532,50	41,9929
533,00	41,9625
533,50	41,9610
534,00	41,9527
534,50	41,9744
535,00	41,9509
535,50	41,9799
536,00	41,9658
536,50	41,9729
537,00	41,9696
537,50	41,9801
538,00	41,9748
538,50	41,9704
539,00	41,9606
539,50	41,9764
540,00	41,9806
540,50	41,9918
541,00	41,9771
541,50	41,9861
542,00	41,9815
542,50	42,0003
543,00	42,0145
543,50	42,0348
544,00	42,0367
544,50	42,0357
545,00	42,0334
545,50	42,0477
546,00	42,0383
546,50	42,0351
547,00	42,0131
547,50	42,0014
548,00	41,9847
548,50	41,9944
549,00	41,9753
549,50	41,9831
550,00	41,9740
550,50	41,9559
551,00	41,9665
551,50	41,9475
552,00	41,9616
552,50	41,9592
553,00	41,9359
553,50	41,9549
554,00	41,9414
554,50	41,9381
555,00	41,9571
555,50	41,9628
556,00	41,9648
556,50	41,9491
557,00	41,9318
557,50	41,8971
558,00	41,8766
558,50	41,8574
559,00	41,8554
559,50	41,8381
560,00	41,8180
560,50	41,8147
561,00	41,7897
561,50	41,7811
562,00	41,8001
562,50	41,7985
563,00	41,7879
563,50	41,7819
564,00	41,7788
564,50	41,7566
565,00	41,7583
565,50	41,7621
566,00	41,7565
566,50	41,7398
567,00	41,7343
567,50	41,7200
568,00	41,7042
568,50	41,6896
569,00	41,6821
569,50	41,6688
570,00	41,6605
570,50	41,6666
571,00	41,6718
571,50	41,6609
572,00	41,6832
572,50	41,6807
573,00	41,6829
573,50	41,6924
574,00	41,6808
574,50	41,6845
575,00	41,6814
575,50	41,6803
576,00	41,6940
576,50	41,6950
577,00	41,7126
577,50	41,7098
578,00	41,7255
578,50	41,7202
579,00	41,7383
579,50	41,7183
580,00	41,7108
580,50	41,6995
581,00	41,6990
581,50	41,6918
582,00	41,7070
582,50	41,6966
583,00	41,7122
583,50	41,7106
584,00	41,7588
584,50	41,7766
585,00	41,7882
585,50	41,7886
586,00	41,7987
586,50	41,8064
587,00	41,8299
587,50	41,8720
588,00	41,8528
588,50	41,8451
589,00	41,8468
589,50	41,8577
590,00	41,8718
590,50	41,8941
591,00	41,8918
591,50	41,8817
592,00	41,8650
592,50	41,8888
593,00	41,8947
593,50	41,8719
594,00	41,8604
594,50	41,8682
595,00	41,8239
595,50	41,8233
596,00	41,8124
596,50	41,8090
597,00	41,8026
597,50	41,7809
598,00	41,8089
598,50	41,8165
599,00	41,8080
599,50	41,8366
600,00	41,8443
