"pen_argset_C_TopSurface_corner3 - Storage 122618"
"Wavelength nm."	"R%"
185,00	158,0383
185,50	147,9931
186,00	141,9336
186,50	133,3924
187,00	129,9289
187,50	121,1316
188,00	119,2346
188,50	120,2407
189,00	123,4357
189,50	111,3402
190,00	113,7941
190,50	113,1208
191,00	112,7191
191,50	107,3525
192,00	108,1438
192,50	106,3114
193,00	103,1785
193,50	98,2297
194,00	96,3126
194,50	96,3995
195,00	92,3723
195,50	92,2620
196,00	90,7923
196,50	88,9421
197,00	89,3305
197,50	90,1678
198,00	90,2758
198,50	90,5836
199,00	89,3997
199,50	89,3203
200,00	88,7277
200,50	88,6081
201,00	88,5657
201,50	88,3784
202,00	86,7028
202,50	86,2852
203,00	85,4080
203,50	83,9107
204,00	84,5643
204,50	83,8135
205,00	83,6604
205,50	82,4385
206,00	81,0362
206,50	81,4675
207,00	80,5872
207,50	79,8387
208,00	78,7067
208,50	77,3590
209,00	76,6232
209,50	75,8510
210,00	75,7470
210,50	74,8743
211,00	73,2236
211,50	72,1184
212,00	71,3408
212,50	70,7922
213,00	70,4066
213,50	69,3309
214,00	68,3531
214,50	67,4586
215,00	66,8800
215,50	66,3878
216,00	65,9062
216,50	65,2274
217,00	64,3556
217,50	63,6016
218,00	63,1257
218,50	62,6340
219,00	61,9366
219,50	61,3316
220,00	60,8383
220,50	60,4428
221,00	59,7805
221,50	59,3296
222,00	58,8237
222,50	58,4209
223,00	58,1669
223,50	57,6505
224,00	56,9357
224,50	56,4836
225,00	55,8370
225,50	55,4891
226,00	55,1653
226,50	54,7744
227,00	54,3205
227,50	53,8402
228,00	53,6333
228,50	53,4215
229,00	53,0497
229,50	52,8090
230,00	52,5444
230,50	52,4002
231,00	52,2706
231,50	51,9591
232,00	51,6440
232,50	51,3387
233,00	51,2098
233,50	51,0168
234,00	50,8932
234,50	50,6703
235,00	50,4134
235,50	50,1648
236,00	50,0525
236,50	50,0099
237,00	49,8479
237,50	49,6719
238,00	49,5430
238,50	49,4064
239,00	49,3354
239,50	49,2246
240,00	49,0788
240,50	49,0820
241,00	48,8882
241,50	48,9682
242,00	48,9386
242,50	48,9236
243,00	48,8427
243,50	48,7886
244,00	48,7902
244,50	48,9017
245,00	48,7869
245,50	48,8186
246,00	48,6943
246,50	48,7363
247,00	48,7446
247,50	48,5947
248,00	48,6747
248,50	48,6456
249,00	48,6042
249,50	48,6646
250,00	48,7521
250,50	48,7633
251,00	48,6997
251,50	48,7904
252,00	48,9464
252,50	48,8994
253,00	48,9765
253,50	49,0763
254,00	49,1437
254,50	49,2431
255,00	49,3488
255,50	49,4688
256,00	49,5068
256,50	49,5735
257,00	49,7096
257,50	49,7968
258,00	49,8499
258,50	49,8077
259,00	49,8486
259,50	49,9220
260,00	49,9795
260,50	50,0417
261,00	50,0882
261,50	50,1460
262,00	50,1702
262,50	50,1737
263,00	50,2911
263,50	50,2913
264,00	50,2660
264,50	50,3142
265,00	50,2798
265,50	50,3561
266,00	50,3532
266,50	50,3382
267,00	50,3146
267,50	50,3709
268,00	50,3469
268,50	50,3834
269,00	50,2622
269,50	50,2208
270,00	50,1215
270,50	50,0607
271,00	50,0029
271,50	50,0476
272,00	49,9857
272,50	49,9950
273,00	49,9407
273,50	49,9250
274,00	49,9866
274,50	49,9468
275,00	49,9454
275,50	49,9078
276,00	49,8523
276,50	49,8298
277,00	49,7197
277,50	49,7164
278,00	49,7141
278,50	49,6380
279,00	49,6433
279,50	49,5795
280,00	49,5244
280,50	49,4841
281,00	49,3905
281,50	49,3494
282,00	49,3336
282,50	49,3333
283,00	49,2487
283,50	49,1910
284,00	49,2455
284,50	49,2271
285,00	49,2130
285,50	49,1289
286,00	49,1973
286,50	49,0829
287,00	49,0340
287,50	49,0325
288,00	49,0431
288,50	48,9128
289,00	48,9262
289,50	49,0005
290,00	49,0133
290,50	48,9145
291,00	48,8632
291,50	48,7616
292,00	48,7909
292,50	48,6993
293,00	48,7345
293,50	48,7183
294,00	48,6217
294,50	48,6602
295,00	48,6770
295,50	48,6967
296,00	48,6900
296,50	48,6302
297,00	48,5993
297,50	48,5743
298,00	48,5855
298,50	48,4526
299,00	48,3792
299,50	48,4448
300,00	48,5001
300,50	48,5307
301,00	48,5083
301,50	48,5301
302,00	48,5151
302,50	48,4620
303,00	48,5042
303,50	48,4866
304,00	48,3747
304,50	48,2522
305,00	48,2410
305,50	48,2029
306,00	48,1765
306,50	48,1774
307,00	48,1310
307,50	48,1384
308,00	48,2118
308,50	48,3759
309,00	48,5482
309,50	48,6822
310,00	48,7876
310,50	48,9448
311,00	49,1545
311,50	49,3236
312,00	49,2870
312,50	49,4381
313,00	49,3487
313,50	49,3840
314,00	49,4194
314,50	49,4493
315,00	49,3971
315,50	49,2453
316,00	49,2945
316,50	49,3945
317,00	49,3835
317,50	49,4796
318,00	49,4063
318,50	49,3777
319,00	49,4213
319,50	49,3946
320,00	49,3331
320,50	49,3050
321,00	49,3605
321,50	49,2791
322,00	49,2480
322,50	49,2658
323,00	49,3042
323,50	49,2669
324,00	49,3272
324,50	49,4276
325,00	49,4201
325,50	49,4059
326,00	49,4597
326,50	49,4350
327,00	49,4735
327,50	49,3883
328,00	49,3539
328,50	49,3350
329,00	49,2544
329,50	49,2535
330,00	49,1851
330,50	49,1284
331,00	49,1828
331,50	49,1717
332,00	49,1544
332,50	49,1722
333,00	49,2491
333,50	49,2681
334,00	49,1992
334,50	49,2197
335,00	49,2261
335,50	49,1159
336,00	49,0702
336,50	49,0503
337,00	49,0429
337,50	48,8747
338,00	48,8748
338,50	48,8506
339,00	48,8661
339,50	48,7694
340,00	48,7617
340,50	48,7806
341,00	48,7640
341,50	48,6654
342,00	48,7544
342,50	48,7287
343,00	48,7261
343,50	48,6223
344,00	48,6791
344,50	48,5635
345,00	48,4811
345,50	48,5557
346,00	48,5421
346,50	48,4270
347,00	48,3759
347,50	48,4129
348,00	48,4103
348,50	48,3242
349,00	48,3516
349,50	48,2949
350,00	48,2057
350,50	48,2225
351,00	48,1935
351,50	48,1525
352,00	48,0446
352,50	48,0384
353,00	48,0566
353,50	48,1036
354,00	48,1024
354,50	48,0456
355,00	47,9878
355,50	47,9579
356,00	47,9349
356,50	47,9698
357,00	47,9400
357,50	47,9258
358,00	47,8103
358,50	47,9560
359,00	48,1033
359,50	48,2685
360,00	48,4528
360,50	48,6203
361,00	48,7294
361,50	48,8990
362,00	49,0718
362,50	49,2763
363,00	49,3289
363,50	49,3307
364,00	49,2643
364,50	49,2841
365,00	49,3053
365,50	49,2704
366,00	49,1874
366,50	49,0605
367,00	49,0662
367,50	49,0067
368,00	48,9608
368,50	48,9828
369,00	48,9139
369,50	48,9328
370,00	48,9435
370,50	49,0161
371,00	49,0287
371,50	48,9712
372,00	48,9545
372,50	48,9439
373,00	48,9303
373,50	48,9140
374,00	48,8557
374,50	48,8380
375,00	48,7716
375,50	48,7551
376,00	48,7192
376,50	48,6205
377,00	48,5357
377,50	48,3774
378,00	48,1859
378,50	47,9616
379,00	47,7995
379,50	47,5970
380,00	47,4013
380,50	47,1794
381,00	47,0604
381,50	46,8935
382,00	46,7708
382,50	46,6719
383,00	46,5377
383,50	46,3593
384,00	46,2115
384,50	46,0919
385,00	46,0071
385,50	45,8388
386,00	45,7460
386,50	45,6482
387,00	45,5313
387,50	45,4826
388,00	45,4274
388,50	45,4091
389,00	45,3861
389,50	45,2947
390,00	45,2532
390,50	45,2083
391,00	45,1563
391,50	45,1511
392,00	45,1188
392,50	45,0918
393,00	45,0182
393,50	44,9486
394,00	44,9617
394,50	44,9313
395,00	44,9065
395,50	44,8787
396,00	44,8501
396,50	44,8359
397,00	44,8604
397,50	44,9229
398,00	44,9500
398,50	44,8931
399,00	44,9183
399,50	44,9465
400,00	44,9583
400,50	44,9643
401,00	44,9922
401,50	44,9273
402,00	44,8829
402,50	44,8531
403,00	44,8551
403,50	44,8413
404,00	44,7966
404,50	44,7737
405,00	44,7667
405,50	44,7396
406,00	44,7439
406,50	44,7132
407,00	44,7063
407,50	44,7321
408,00	44,7005
408,50	44,6826
409,00	44,6226
409,50	44,6189
410,00	44,6001
410,50	44,5903
411,00	44,5738
411,50	44,5660
412,00	44,5303
412,50	44,5129
413,00	44,5032
413,50	44,5416
414,00	44,5284
414,50	44,5116
415,00	44,4835
415,50	44,4798
416,00	44,4479
416,50	44,4437
417,00	44,4271
417,50	44,4003
418,00	44,3812
418,50	44,2351
419,00	44,1222
419,50	44,0141
420,00	43,9097
420,50	43,8168
421,00	43,7299
421,50	43,6330
422,00	43,5330
422,50	43,4382
423,00	43,4634
423,50	43,4423
424,00	43,4469
424,50	43,4371
425,00	43,3979
425,50	43,3837
426,00	43,3715
426,50	43,3539
427,00	43,3394
427,50	43,3347
428,00	43,3292
428,50	43,3269
429,00	43,3347
429,50	43,3682
430,00	43,3554
430,50	43,3487
431,00	43,3531
431,50	43,3690
432,00	43,3843
432,50	43,3997
433,00	43,3965
433,50	43,4053
434,00	43,3902
434,50	43,3733
435,00	43,3562
435,50	43,3756
436,00	43,3708
436,50	43,3363
437,00	43,3121
437,50	43,3104
438,00	43,2954
438,50	43,2818
439,00	43,2900
439,50	43,2992
440,00	43,2643
440,50	43,2711
441,00	43,2736
441,50	43,2887
442,00	43,2935
442,50	43,2719
443,00	43,2766
443,50	43,2549
444,00	43,2577
444,50	43,2600
445,00	43,2578
445,50	43,2699
446,00	43,2685
446,50	43,2469
447,00	43,2693
447,50	43,2870
448,00	43,3206
448,50	43,3213
449,00	43,3042
449,50	43,2993
450,00	43,2967
450,50	43,3116
451,00	43,3278
451,50	43,3259
452,00	43,3260
452,50	43,3264
453,00	43,3126
453,50	43,3192
454,00	43,3195
454,50	43,3143
455,00	43,2795
455,50	43,2668
456,00	43,2458
456,50	43,2261
457,00	43,2011
457,50	43,2192
458,00	43,2417
458,50	43,2248
459,00	43,2094
459,50	43,2167
460,00	43,2223
460,50	43,2092
461,00	43,2045
461,50	43,2001
462,00	43,1988
462,50	43,1525
463,00	43,1272
463,50	43,1110
464,00	43,0963
464,50	43,0711
465,00	43,0685
465,50	43,0635
466,00	43,0380
466,50	43,0100
467,00	43,0165
467,50	43,0082
468,00	43,0015
468,50	43,0029
469,00	43,0024
469,50	43,0119
470,00	42,9901
470,50	42,9954
471,00	42,9993
471,50	42,9965
472,00	42,9847
472,50	42,9880
473,00	42,9623
473,50	42,9433
474,00	42,9269
474,50	42,9217
475,00	42,9230
475,50	42,9113
476,00	42,8921
476,50	42,9036
477,00	42,9010
477,50	42,9167
478,00	42,9208
478,50	42,9175
479,00	42,9185
479,50	42,9241
480,00	42,9184
480,50	42,9386
481,00	42,9320
481,50	42,9073
482,00	42,8812
482,50	42,8697
483,00	42,8670
483,50	42,8634
484,00	42,8470
484,50	42,8385
485,00	42,8071
485,50	42,7971
486,00	42,8039
486,50	42,8170
487,00	42,8232
487,50	42,8277
488,00	42,8327
488,50	42,8323
489,00	42,8331
489,50	42,8252
490,00	42,8255
490,50	42,8176
491,00	42,8198
491,50	42,8258
492,00	42,8157
492,50	42,8111
493,00	42,8101
493,50	42,8011
494,00	42,8209
494,50	42,8326
495,00	42,8618
495,50	42,8577
496,00	42,8451
496,50	42,8475
497,00	42,8583
497,50	42,8504
498,00	42,8617
498,50	42,8628
499,00	42,8677
499,50	42,8473
500,00	42,8498
500,50	42,8498
501,00	42,8598
501,50	42,8673
502,00	42,8828
502,50	42,8807
503,00	42,8957
503,50	42,8920
504,00	42,8933
504,50	42,9005
505,00	42,9136
505,50	42,8878
506,00	42,8697
506,50	42,8659
507,00	42,8684
507,50	42,8381
508,00	42,8347
508,50	42,8209
509,00	42,8061
509,50	42,7886
510,00	42,8000
510,50	42,7960
511,00	42,7787
511,50	42,7638
512,00	42,7807
512,50	42,7677
513,00	42,7574
513,50	42,7619
514,00	42,7874
514,50	42,7935
515,00	42,8096
515,50	42,7892
516,00	42,7816
516,50	42,7684
517,00	42,7555
517,50	42,7563
518,00	42,7438
518,50	42,7173
519,00	42,6856
519,50	42,6494
520,00	42,6779
520,50	42,6702
521,00	42,6821
521,50	42,6945
522,00	42,6999
522,50	42,7136
523,00	42,6933
523,50	42,7227
524,00	42,7493
524,50	42,7350
525,00	42,7673
525,50	42,7450
526,00	42,7315
526,50	42,7097
527,00	42,6773
527,50	42,6756
528,00	42,6439
528,50	42,6153
529,00	42,5747
529,50	42,5143
530,00	42,4722
530,50	42,4356
531,00	42,3975
531,50	42,3649
532,00	42,3211
532,50	42,2862
533,00	42,2446
533,50	42,2376
534,00	42,2439
534,50	42,2491
535,00	42,2626
535,50	42,2702
536,00	42,2839
536,50	42,2838
537,00	42,3157
537,50	42,3338
538,00	42,3461
538,50	42,3281
539,00	42,3083
539,50	42,2952
540,00	42,3024
540,50	42,2799
541,00	42,2821
541,50	42,2493
542,00	42,2337
542,50	42,2252
543,00	42,2435
543,50	42,2631
544,00	42,2562
544,50	42,2550
545,00	42,2664
545,50	42,2741
546,00	42,2763
546,50	42,2707
547,00	42,2834
547,50	42,2576
548,00	42,2536
548,50	42,2653
549,00	42,2484
549,50	42,2359
550,00	42,2499
550,50	42,2381
551,00	42,2407
551,50	42,2143
552,00	42,2241
552,50	42,2129
553,00	42,1920
553,50	42,2078
554,00	42,2075
554,50	42,1707
555,00	42,1757
555,50	42,1656
556,00	42,1656
556,50	42,1489
557,00	42,1316
557,50	42,1139
558,00	42,0855
558,50	42,0604
559,00	42,0685
559,50	42,0620
560,00	42,0556
560,50	42,0342
561,00	42,0312
561,50	42,0296
562,00	42,0382
562,50	42,0495
563,00	42,0688
563,50	42,0582
564,00	42,0603
564,50	42,0434
565,00	42,0467
565,50	42,0238
566,00	42,0043
566,50	41,9876
567,00	41,9807
567,50	41,9524
568,00	41,9520
568,50	41,9285
569,00	41,9231
569,50	41,9167
570,00	41,9227
570,50	41,9310
571,00	41,9488
571,50	41,9355
572,00	41,9395
572,50	41,9091
573,00	41,8981
573,50	41,9020
574,00	41,9007
574,50	41,9084
575,00	41,9132
575,50	41,8977
576,00	41,9083
576,50	41,9122
577,00	41,9334
577,50	41,9461
578,00	41,9290
578,50	41,9256
579,00	41,9246
579,50	41,9169
580,00	41,9299
580,50	41,9254
581,00	41,9115
581,50	41,9194
582,00	41,9350
582,50	41,9590
583,00	41,9542
583,50	41,9656
584,00	41,9894
584,50	41,9753
585,00	41,9849
585,50	41,9976
586,00	42,0182
586,50	42,0189
587,00	42,0366
587,50	42,0795
588,00	42,0698
588,50	42,0594
589,00	42,0767
589,50	42,0785
590,00	42,0906
590,50	42,0841
591,00	42,0873
591,50	42,0869
592,00	42,0569
592,50	42,0555
593,00	42,0669
593,50	42,0751
594,00	42,0643
594,50	42,0749
595,00	42,0540
595,50	42,0402
596,00	42,0161
596,50	42,0168
597,00	42,0302
597,50	42,0210
598,00	42,0132
598,50	42,0235
599,00	42,0151
599,50	42,0333
600,00	42,0421
