"pen_argset_otherB_front_spot4 - Storage 132718"
"Wavelength nm."	"R%"
185,00	237,8537
185,50	218,8849
186,00	197,8042
186,50	175,8951
187,00	165,0484
187,50	146,1214
188,00	131,7949
188,50	139,3805
189,00	136,4754
189,50	127,2578
190,00	126,8221
190,50	127,7594
191,00	128,3519
191,50	118,2224
192,00	117,0867
192,50	115,1244
193,00	108,9693
193,50	102,6065
194,00	100,5338
194,50	98,5196
195,00	96,4710
195,50	97,1492
196,00	96,0389
196,50	94,4824
197,00	94,4180
197,50	94,9751
198,00	94,5291
198,50	94,3287
199,00	93,3146
199,50	92,1962
200,00	90,3908
200,50	89,0089
201,00	87,8609
201,50	88,3123
202,00	87,2745
202,50	86,8928
203,00	86,6464
203,50	85,0027
204,00	84,2705
204,50	83,0710
205,00	82,6970
205,50	81,4160
206,00	79,5157
206,50	79,2274
207,00	78,6636
207,50	77,5932
208,00	77,6530
208,50	77,5367
209,00	76,7632
209,50	76,5093
210,00	75,9823
210,50	75,1575
211,00	73,6695
211,50	72,4217
212,00	71,7606
212,50	70,7297
213,00	69,9435
213,50	69,3642
214,00	67,9188
214,50	67,2328
215,00	66,9169
215,50	66,3567
216,00	65,6049
216,50	65,0651
217,00	64,4610
217,50	63,9717
218,00	63,3353
218,50	63,0966
219,00	62,4716
219,50	61,8719
220,00	61,3820
220,50	61,2024
221,00	60,5432
221,50	59,9923
222,00	59,3873
222,50	58,9903
223,00	58,6346
223,50	58,0815
224,00	57,3899
224,50	57,1307
225,00	56,3648
225,50	56,0053
226,00	55,6695
226,50	55,2219
227,00	54,6315
227,50	54,2113
228,00	54,0031
228,50	53,8176
229,00	53,5292
229,50	53,3720
230,00	53,1362
230,50	53,0025
231,00	52,6780
231,50	52,4222
232,00	52,1068
232,50	51,8822
233,00	51,6827
233,50	51,3408
234,00	51,1705
234,50	50,8337
235,00	50,6911
235,50	50,5737
236,00	50,4477
236,50	50,3546
237,00	50,1964
237,50	50,0211
238,00	49,9372
238,50	49,8228
239,00	49,7955
239,50	49,5641
240,00	49,4104
240,50	49,4629
241,00	49,3496
241,50	49,4036
242,00	49,3415
242,50	49,3384
243,00	49,2828
243,50	49,2547
244,00	49,3170
244,50	49,3939
245,00	49,2000
245,50	49,1805
246,00	49,0636
246,50	49,0591
247,00	49,0175
247,50	48,9446
248,00	48,8787
248,50	48,7626
249,00	48,6515
249,50	48,7323
250,00	48,8422
250,50	48,8396
251,00	48,8437
251,50	48,9051
252,00	49,0070
252,50	49,0900
253,00	49,2318
253,50	49,3703
254,00	49,4733
254,50	49,6031
255,00	49,7512
255,50	49,8173
256,00	49,8057
256,50	49,9004
257,00	49,8829
257,50	49,9719
258,00	50,0500
258,50	50,0606
259,00	49,9763
259,50	49,9716
260,00	50,1044
260,50	50,1383
261,00	50,1354
261,50	50,2596
262,00	50,2523
262,50	50,2386
263,00	50,3090
263,50	50,3622
264,00	50,3438
264,50	50,3697
265,00	50,4069
265,50	50,4524
266,00	50,3793
266,50	50,2113
267,00	50,2384
267,50	50,2047
268,00	50,1528
268,50	50,1858
269,00	50,0822
269,50	50,1304
270,00	50,0724
270,50	50,0969
271,00	50,1572
271,50	50,0738
272,00	50,0090
272,50	50,0013
273,00	50,0373
273,50	50,0676
274,00	50,0403
274,50	50,0361
275,00	50,0256
275,50	50,0258
276,00	50,0471
276,50	50,0349
277,00	50,0040
277,50	49,9659
278,00	49,8925
278,50	49,8102
279,00	49,7644
279,50	49,7262
280,00	49,6611
280,50	49,6340
281,00	49,5629
281,50	49,4620
282,00	49,3591
282,50	49,3474
283,00	49,2620
283,50	49,2829
284,00	49,3042
284,50	49,2788
285,00	49,1670
285,50	49,1793
286,00	49,1924
286,50	49,1364
287,00	49,0089
287,50	49,0049
288,00	48,9711
288,50	48,8950
289,00	48,9237
289,50	48,9748
290,00	48,9073
290,50	48,8548
291,00	48,8359
291,50	48,8720
292,00	48,8485
292,50	48,7859
293,00	48,7657
293,50	48,7292
294,00	48,6582
294,50	48,6949
295,00	48,6921
295,50	48,6298
296,00	48,5636
296,50	48,5431
297,00	48,5128
297,50	48,3951
298,00	48,4284
298,50	48,4004
299,00	48,3736
299,50	48,3983
300,00	48,4931
300,50	48,5228
301,00	48,4528
301,50	48,4838
302,00	48,5574
302,50	48,4386
303,00	48,4475
303,50	48,4480
304,00	48,4635
304,50	48,4368
305,00	48,4526
305,50	48,4645
306,00	48,3681
306,50	48,3981
307,00	48,4246
307,50	48,4133
308,00	48,3663
308,50	48,4975
309,00	48,6854
309,50	48,9108
310,00	48,9834
310,50	49,1350
311,00	49,3563
311,50	49,5035
312,00	49,5982
312,50	49,7609
313,00	49,7200
313,50	49,7242
314,00	49,6341
314,50	49,7443
315,00	49,7660
315,50	49,7239
316,00	49,6762
316,50	49,7547
317,00	49,8276
317,50	49,8887
318,00	49,8473
318,50	49,8172
319,00	49,8110
319,50	49,7628
320,00	49,5869
320,50	49,5566
321,00	49,5400
321,50	49,4781
322,00	49,4420
322,50	49,3495
323,00	49,4546
323,50	49,4885
324,00	49,4555
324,50	49,5435
325,00	49,6041
325,50	49,5179
326,00	49,4573
326,50	49,3352
327,00	49,3796
327,50	49,2414
328,00	49,1464
328,50	49,1926
329,00	49,1466
329,50	49,1228
330,00	49,0977
330,50	49,0374
331,00	49,1055
331,50	49,0503
332,00	49,0400
332,50	49,0096
333,00	49,0227
333,50	48,9361
334,00	48,9635
334,50	48,9790
335,00	49,0269
335,50	48,9614
336,00	48,9278
336,50	48,9280
337,00	48,9249
337,50	48,8429
338,00	48,9535
338,50	48,8851
339,00	48,9395
339,50	48,8517
340,00	48,8417
340,50	48,8772
341,00	48,7778
341,50	48,8255
342,00	48,8319
342,50	48,7519
343,00	48,7395
343,50	48,6743
344,00	48,6998
344,50	48,6188
345,00	48,5778
345,50	48,6553
346,00	48,5897
346,50	48,5235
347,00	48,5363
347,50	48,5400
348,00	48,5025
348,50	48,4292
349,00	48,4598
349,50	48,4005
350,00	48,3373
350,50	48,2859
351,00	48,3186
351,50	48,2547
352,00	48,1747
352,50	48,1576
353,00	48,2066
353,50	48,2056
354,00	48,2058
354,50	48,1896
355,00	48,1612
355,50	48,1190
356,00	48,0177
356,50	48,0115
357,00	47,9388
357,50	47,9424
358,00	47,8067
358,50	47,9644
359,00	48,1411
359,50	48,3562
360,00	48,5128
360,50	48,7185
361,00	48,8427
361,50	49,0549
362,00	49,1655
362,50	49,4473
363,00	49,4469
363,50	49,3037
364,00	49,2350
364,50	49,2056
365,00	49,2568
365,50	49,2978
366,00	49,1903
366,50	49,1551
367,00	49,1640
367,50	49,1102
368,00	49,2131
368,50	49,1960
369,00	49,1841
369,50	49,1811
370,00	49,0877
370,50	49,1660
371,00	49,1261
371,50	49,0407
372,00	49,0511
372,50	48,9745
373,00	48,9316
373,50	48,9230
374,00	48,8042
374,50	48,7842
375,00	48,6629
375,50	48,6237
376,00	48,5231
376,50	48,4208
377,00	48,3331
377,50	48,2096
378,00	48,0357
378,50	47,9034
379,00	47,7277
379,50	47,5703
380,00	47,3753
380,50	47,2237
381,00	47,0579
381,50	46,8652
382,00	46,7349
382,50	46,5829
383,00	46,4575
383,50	46,3339
384,00	46,1981
384,50	46,0779
385,00	45,9771
385,50	45,8626
386,00	45,7939
386,50	45,6683
387,00	45,5753
387,50	45,4920
388,00	45,4238
388,50	45,4099
389,00	45,3906
389,50	45,3358
390,00	45,2779
390,50	45,2121
391,00	45,1810
391,50	45,1636
392,00	45,1186
392,50	45,0960
393,00	45,0342
393,50	44,9484
394,00	44,9375
394,50	44,9011
395,00	44,8844
395,50	44,8693
396,00	44,8289
396,50	44,8355
397,00	44,8051
397,50	44,8343
398,00	44,8750
398,50	44,8294
399,00	44,8227
399,50	44,8350
400,00	44,8503
400,50	44,8713
401,00	44,8410
401,50	44,8396
402,00	44,7835
402,50	44,7734
403,00	44,7606
403,50	44,7678
404,00	44,7145
404,50	44,6922
405,00	44,6620
405,50	44,6272
406,00	44,6162
406,50	44,6024
407,00	44,5985
407,50	44,5971
408,00	44,5651
408,50	44,5771
409,00	44,5468
409,50	44,5631
410,00	44,5951
410,50	44,5887
411,00	44,5811
411,50	44,5449
412,00	44,5359
412,50	44,5236
413,00	44,4926
413,50	44,4880
414,00	44,4626
414,50	44,4478
415,00	44,4234
415,50	44,4240
416,00	44,4131
416,50	44,3914
417,00	44,3542
417,50	44,3541
418,00	44,3174
418,50	44,2024
419,00	44,0722
419,50	43,9803
420,00	43,8749
420,50	43,7751
421,00	43,6637
421,50	43,5826
422,00	43,4589
422,50	43,3597
423,00	43,3464
423,50	43,3189
424,00	43,3079
424,50	43,2870
425,00	43,2633
425,50	43,2693
426,00	43,2259
426,50	43,2297
427,00	43,2304
427,50	43,2280
428,00	43,2141
428,50	43,1975
429,00	43,1819
429,50	43,1870
430,00	43,1839
430,50	43,2016
431,00	43,2104
431,50	43,2345
432,00	43,2482
432,50	43,2707
433,00	43,2954
433,50	43,3127
434,00	43,2926
434,50	43,2652
435,00	43,2763
435,50	43,2844
436,00	43,2730
436,50	43,2650
437,00	43,2636
437,50	43,2385
438,00	43,2201
438,50	43,2395
439,00	43,2536
439,50	43,2553
440,00	43,2171
440,50	43,2112
441,00	43,1930
441,50	43,2025
442,00	43,2026
442,50	43,2015
443,00	43,1704
443,50	43,1571
444,00	43,1507
444,50	43,1490
445,00	43,1599
445,50	43,1747
446,00	43,1613
446,50	43,1720
447,00	43,1927
447,50	43,2188
448,00	43,2296
448,50	43,2199
449,00	43,2304
449,50	43,2140
450,00	43,2247
450,50	43,2196
451,00	43,2073
451,50	43,2032
452,00	43,2066
452,50	43,2303
453,00	43,2421
453,50	43,2497
454,00	43,2638
454,50	43,2332
455,00	43,2277
455,50	43,2261
456,00	43,2042
456,50	43,1757
457,00	43,1588
457,50	43,1557
458,00	43,1539
458,50	43,1322
459,00	43,1479
459,50	43,1430
460,00	43,1239
460,50	43,0975
461,00	43,0853
461,50	43,0595
462,00	43,0420
462,50	43,0222
463,00	43,0115
463,50	42,9718
464,00	42,9686
464,50	42,9598
465,00	42,9690
465,50	42,9840
466,00	42,9638
466,50	42,9556
467,00	42,9342
467,50	42,9076
468,00	42,9070
468,50	42,8845
469,00	42,8698
469,50	42,8750
470,00	42,8588
470,50	42,8523
471,00	42,8300
471,50	42,8198
472,00	42,8235
472,50	42,8290
473,00	42,8177
473,50	42,8205
474,00	42,7969
474,50	42,7855
475,00	42,7998
475,50	42,8035
476,00	42,8159
476,50	42,7884
477,00	42,7758
477,50	42,7856
478,00	42,7871
478,50	42,7960
479,00	42,7932
479,50	42,7790
480,00	42,7737
480,50	42,7480
481,00	42,7716
481,50	42,7503
482,00	42,7382
482,50	42,7283
483,00	42,7261
483,50	42,7086
484,00	42,7197
484,50	42,7301
485,00	42,7485
485,50	42,7255
486,00	42,7370
486,50	42,7449
487,00	42,7367
487,50	42,7319
488,00	42,7466
488,50	42,7471
489,00	42,7265
489,50	42,7234
490,00	42,7424
490,50	42,7421
491,00	42,7551
491,50	42,7715
492,00	42,7887
492,50	42,7987
493,00	42,7878
493,50	42,7846
494,00	42,8060
494,50	42,7885
495,00	42,7993
495,50	42,7756
496,00	42,7480
496,50	42,7214
497,00	42,7379
497,50	42,7542
498,00	42,7664
498,50	42,7390
499,00	42,7601
499,50	42,7524
500,00	42,7664
500,50	42,7813
501,00	42,7866
501,50	42,7623
502,00	42,7512
502,50	42,7531
503,00	42,7610
503,50	42,7617
504,00	42,7699
504,50	42,7495
505,00	42,7472
505,50	42,7425
506,00	42,7300
506,50	42,7169
507,00	42,7116
507,50	42,6990
508,00	42,6887
508,50	42,6595
509,00	42,6511
509,50	42,6388
510,00	42,6421
510,50	42,6429
511,00	42,6382
511,50	42,6349
512,00	42,6479
512,50	42,6396
513,00	42,6486
513,50	42,6621
514,00	42,6650
514,50	42,6576
515,00	42,6598
515,50	42,6541
516,00	42,6610
516,50	42,6453
517,00	42,6301
517,50	42,6309
518,00	42,6293
518,50	42,6137
519,00	42,6143
519,50	42,5839
520,00	42,6089
520,50	42,5963
521,00	42,5854
521,50	42,5881
522,00	42,5846
522,50	42,5810
523,00	42,6172
523,50	42,5924
524,00	42,6381
524,50	42,6166
525,00	42,6218
525,50	42,6169
526,00	42,6141
526,50	42,5859
527,00	42,5624
527,50	42,5417
528,00	42,5376
528,50	42,4866
529,00	42,4436
529,50	42,3834
530,00	42,3434
530,50	42,3093
531,00	42,2665
531,50	42,2490
532,00	42,2013
532,50	42,1686
533,00	42,1423
533,50	42,1520
534,00	42,1573
534,50	42,1546
535,00	42,1631
535,50	42,1773
536,00	42,1592
536,50	42,1387
537,00	42,1642
537,50	42,1710
538,00	42,1755
538,50	42,1765
539,00	42,1866
539,50	42,1841
540,00	42,1836
540,50	42,1785
541,00	42,1835
541,50	42,1557
542,00	42,1621
542,50	42,1560
543,00	42,1586
543,50	42,1581
544,00	42,1512
544,50	42,1413
545,00	42,1575
545,50	42,1769
546,00	42,1827
546,50	42,1726
547,00	42,1813
547,50	42,1745
548,00	42,1645
548,50	42,1683
549,00	42,1806
549,50	42,1886
550,00	42,1702
550,50	42,1678
551,00	42,1750
551,50	42,1293
552,00	42,1322
552,50	42,1412
553,00	42,1446
553,50	42,1505
554,00	42,1275
554,50	42,1073
555,00	42,1186
555,50	42,1305
556,00	42,1273
556,50	42,1113
557,00	42,0633
557,50	42,0262
558,00	42,0031
558,50	41,9853
559,00	42,0036
559,50	41,9679
560,00	41,9304
560,50	41,9364
561,00	41,9520
561,50	41,9672
562,00	41,9760
562,50	41,9812
563,00	41,9880
563,50	41,9803
564,00	41,9862
564,50	41,9749
565,00	41,9722
565,50	41,9486
566,00	41,9343
566,50	41,9101
567,00	41,8945
567,50	41,8870
568,00	41,8737
568,50	41,8607
569,00	41,8618
569,50	41,8429
570,00	41,8377
570,50	41,8378
571,00	41,8494
571,50	41,8462
572,00	41,8336
572,50	41,8153
573,00	41,8172
573,50	41,8202
574,00	41,8094
574,50	41,8069
575,00	41,8059
575,50	41,7926
576,00	41,7934
576,50	41,8049
577,00	41,8221
577,50	41,8267
578,00	41,8260
578,50	41,8327
579,00	41,8372
579,50	41,8307
580,00	41,8461
580,50	41,8379
581,00	41,8430
581,50	41,8608
582,00	41,8624
582,50	41,8481
583,00	41,8438
583,50	41,8571
584,00	41,8788
584,50	41,8674
585,00	41,8874
585,50	41,8929
586,00	41,8937
586,50	41,8996
587,00	41,9303
587,50	41,9685
588,00	41,9635
588,50	41,9753
589,00	41,9970
589,50	41,9891
590,00	41,9891
590,50	41,9912
591,00	41,9929
591,50	41,9873
592,00	41,9705
592,50	41,9738
593,00	41,9762
593,50	41,9618
594,00	41,9723
594,50	41,9808
595,00	41,9601
595,50	41,9638
596,00	41,9653
596,50	41,9797
597,00	41,9761
597,50	41,9651
598,00	41,9750
598,50	41,9686
599,00	41,9567
599,50	41,9694
600,00	41,9647
