"pen_argset_B_centre_back - Storage 124846"
"Wavelength nm."	"R%"
185,00	821,7125
185,50	686,4993
186,00	548,5710
186,50	406,0778
187,00	271,9983
187,50	133,4962
188,00	137,9729
188,50	137,5080
189,00	136,0315
189,50	127,5872
190,00	122,9179
190,50	120,6933
191,00	121,9711
191,50	115,3122
192,00	113,6928
192,50	112,5198
193,00	109,1528
193,50	103,7711
194,00	101,7404
194,50	100,3623
195,00	97,8826
195,50	98,7719
196,00	97,1587
196,50	94,8418
197,00	93,6663
197,50	93,4424
198,00	92,9841
198,50	93,3356
199,00	92,3686
199,50	92,5803
200,00	90,2566
200,50	89,3085
201,00	89,5996
201,50	89,4438
202,00	88,1027
202,50	86,7843
203,00	86,2678
203,50	85,2549
204,00	84,2559
204,50	83,6104
205,00	84,1812
205,50	82,8364
206,00	81,2962
206,50	80,8811
207,00	80,8584
207,50	80,2209
208,00	79,6838
208,50	78,9596
209,00	78,2599
209,50	77,0826
210,00	76,7065
210,50	76,2176
211,00	74,9223
211,50	73,6460
212,00	72,6520
212,50	71,8934
213,00	71,2802
213,50	70,2458
214,00	69,0651
214,50	67,7297
215,00	66,9986
215,50	66,4979
216,00	65,9462
216,50	65,4981
217,00	64,4650
217,50	63,6362
218,00	63,2147
218,50	62,6623
219,00	62,1905
219,50	61,6452
220,00	60,9468
220,50	60,7389
221,00	59,9345
221,50	59,6432
222,00	59,3935
222,50	58,7825
223,00	58,3696
223,50	57,8457
224,00	57,1968
224,50	56,8192
225,00	56,0521
225,50	55,5226
226,00	54,9788
226,50	54,4155
227,00	54,0672
227,50	53,7955
228,00	53,6053
228,50	53,3870
229,00	53,1211
229,50	52,8559
230,00	52,7187
230,50	52,6382
231,00	52,4480
231,50	52,2142
232,00	51,8440
232,50	51,4869
233,00	51,3067
233,50	51,0748
234,00	50,8746
234,50	50,6367
235,00	50,4477
235,50	50,3471
236,00	50,1768
236,50	50,1806
237,00	50,1619
237,50	50,0191
238,00	49,8888
238,50	49,7483
239,00	49,7049
239,50	49,4941
240,00	49,2393
240,50	49,1762
241,00	48,9799
241,50	48,8804
242,00	48,8426
242,50	48,8478
243,00	48,8614
243,50	48,7975
244,00	48,8057
244,50	48,9388
245,00	48,8770
245,50	48,8440
246,00	48,7727
246,50	48,7388
247,00	48,7593
247,50	48,6550
248,00	48,6709
248,50	48,6664
249,00	48,4943
249,50	48,5122
250,00	48,5670
250,50	48,5731
251,00	48,5348
251,50	48,5321
252,00	48,6553
252,50	48,6087
253,00	48,7135
253,50	48,8888
254,00	48,9991
254,50	49,0857
255,00	49,2283
255,50	49,3651
256,00	49,4504
256,50	49,5294
257,00	49,6908
257,50	49,7971
258,00	49,8680
258,50	49,8631
259,00	49,9461
259,50	50,0234
260,00	50,1208
260,50	50,1491
261,00	50,1772
261,50	50,2523
262,00	50,3508
262,50	50,2921
263,00	50,4801
263,50	50,4727
264,00	50,4245
264,50	50,4236
265,00	50,4326
265,50	50,4251
266,00	50,4417
266,50	50,3015
267,00	50,3586
267,50	50,2525
268,00	50,2375
268,50	50,1768
269,00	50,1035
269,50	50,0737
270,00	50,0856
270,50	49,9793
271,00	49,9487
271,50	49,9591
272,00	49,9319
272,50	49,8682
273,00	49,9505
273,50	49,9598
274,00	49,9422
274,50	49,8591
275,00	49,8139
275,50	49,7286
276,00	49,7040
276,50	49,7039
277,00	49,6629
277,50	49,6419
278,00	49,5786
278,50	49,5502
279,00	49,5177
279,50	49,4607
280,00	49,5044
280,50	49,4790
281,00	49,3363
281,50	49,2465
282,00	49,1439
282,50	49,0975
283,00	49,1063
283,50	49,0774
284,00	49,2114
284,50	49,1471
285,00	49,1525
285,50	49,2183
286,00	49,2515
286,50	49,1873
287,00	49,1229
287,50	49,0548
288,00	49,0876
288,50	48,9782
289,00	48,9921
289,50	49,0207
290,00	48,9186
290,50	48,8937
291,00	48,8462
291,50	48,8606
292,00	48,8200
292,50	48,7389
293,00	48,6951
293,50	48,6190
294,00	48,5073
294,50	48,5251
295,00	48,5295
295,50	48,5001
296,00	48,4436
296,50	48,4316
297,00	48,3731
297,50	48,3278
298,00	48,3224
298,50	48,1971
299,00	48,2037
299,50	48,1963
300,00	48,2725
300,50	48,2875
301,00	48,1899
301,50	48,2952
302,00	48,1671
302,50	48,1680
303,00	48,2952
303,50	48,2411
304,00	48,1489
304,50	48,1227
305,00	48,2135
305,50	48,2376
306,00	48,0777
306,50	48,2154
307,00	48,1442
307,50	48,0845
308,00	48,1244
308,50	48,3247
309,00	48,5358
309,50	48,6451
310,00	48,8731
310,50	49,0898
311,00	49,3095
311,50	49,4595
312,00	49,6193
312,50	49,7805
313,00	49,7639
313,50	49,7151
314,00	49,6683
314,50	49,5515
315,00	49,4857
315,50	49,4078
316,00	49,4585
316,50	49,3659
317,00	49,3785
317,50	49,4607
318,00	49,4586
318,50	49,4450
319,00	49,5075
319,50	49,5353
320,00	49,5214
320,50	49,4895
321,00	49,4970
321,50	49,4603
322,00	49,4310
322,50	49,3803
323,00	49,3571
323,50	49,3599
324,00	49,3335
324,50	49,3124
325,00	49,3344
325,50	49,3764
326,00	49,3415
326,50	49,2460
327,00	49,2814
327,50	49,3000
328,00	49,2274
328,50	49,2527
329,00	49,2331
329,50	49,1675
330,00	49,1570
330,50	49,1328
331,00	49,1538
331,50	49,1332
332,00	49,0856
332,50	49,0917
333,00	49,0942
333,50	48,9995
334,00	49,0797
334,50	49,0567
335,00	49,0359
335,50	48,9903
336,00	48,9168
336,50	48,9324
337,00	48,8931
337,50	48,8068
338,00	48,8545
338,50	48,7728
339,00	48,7380
339,50	48,6992
340,00	48,6945
340,50	48,7398
341,00	48,6939
341,50	48,7162
342,00	48,6947
342,50	48,6349
343,00	48,5755
343,50	48,5184
344,00	48,5329
344,50	48,5191
345,00	48,4747
345,50	48,5014
346,00	48,4831
346,50	48,4353
347,00	48,4701
347,50	48,4556
348,00	48,4792
348,50	48,4332
349,00	48,4118
349,50	48,3502
350,00	48,2624
350,50	48,2415
351,00	48,2493
351,50	48,1932
352,00	48,1610
352,50	48,1389
353,00	48,1448
353,50	48,1178
354,00	48,0941
354,50	48,0687
355,00	48,0247
355,50	47,9774
356,00	47,9323
356,50	47,9030
357,00	47,7927
357,50	47,7711
358,00	47,6819
358,50	47,8721
359,00	47,9519
359,50	48,0974
360,00	48,2541
360,50	48,4860
361,00	48,6045
361,50	48,7850
362,00	48,9264
362,50	49,1667
363,00	49,1321
363,50	49,1859
364,00	49,1268
364,50	49,1328
365,00	49,1108
365,50	49,1845
366,00	49,1695
366,50	49,1083
367,00	49,0634
367,50	49,0549
368,00	49,0269
368,50	49,0602
369,00	49,0468
369,50	49,0148
370,00	48,9280
370,50	49,0010
371,00	48,9986
371,50	48,9678
372,00	48,9228
372,50	48,9232
373,00	48,8917
373,50	48,8929
374,00	48,7998
374,50	48,7824
375,00	48,6168
375,50	48,5935
376,00	48,5137
376,50	48,4403
377,00	48,3343
377,50	48,1527
378,00	47,9804
378,50	47,8216
379,00	47,6731
379,50	47,5254
380,00	47,3011
380,50	47,1099
381,00	46,9387
381,50	46,7350
382,00	46,6441
382,50	46,5037
383,00	46,3990
383,50	46,2378
384,00	46,1214
384,50	46,0094
385,00	45,9307
385,50	45,8013
386,00	45,7222
386,50	45,6072
387,00	45,4992
387,50	45,4317
388,00	45,3973
388,50	45,3598
389,00	45,3235
389,50	45,2627
390,00	45,2228
390,50	45,1819
391,00	45,1694
391,50	45,1657
392,00	45,1232
392,50	45,0722
393,00	45,0156
393,50	44,9698
394,00	44,9426
394,50	44,9321
395,00	44,9096
395,50	44,8808
396,00	44,8668
396,50	44,8915
397,00	44,8729
397,50	44,9098
398,00	44,9537
398,50	44,9647
399,00	44,9525
399,50	44,9792
400,00	44,9918
400,50	44,9999
401,00	44,9666
401,50	44,9864
402,00	44,9289
402,50	44,8821
403,00	44,8471
403,50	44,8486
404,00	44,8050
404,50	44,7723
405,00	44,7351
405,50	44,7176
406,00	44,6803
406,50	44,6876
407,00	44,7042
407,50	44,7170
408,00	44,6985
408,50	44,7090
409,00	44,6686
409,50	44,6442
410,00	44,6523
410,50	44,6529
411,00	44,6200
411,50	44,5841
412,00	44,5256
412,50	44,5103
413,00	44,4849
413,50	44,4985
414,00	44,4909
414,50	44,4733
415,00	44,4489
415,50	44,4461
416,00	44,4132
416,50	44,4184
417,00	44,4034
417,50	44,3911
418,00	44,3569
418,50	44,2399
419,00	44,1209
419,50	44,0194
420,00	43,9101
420,50	43,8229
421,00	43,7015
421,50	43,6133
422,00	43,4973
422,50	43,4147
423,00	43,4206
423,50	43,4213
424,00	43,4102
424,50	43,4046
425,00	43,3943
425,50	43,4207
426,00	43,3748
426,50	43,3697
427,00	43,3679
427,50	43,3828
428,00	43,3591
428,50	43,3660
429,00	43,3610
429,50	43,3538
430,00	43,3525
430,50	43,3658
431,00	43,3828
431,50	43,3828
432,00	43,3734
432,50	43,3802
433,00	43,3728
433,50	43,3752
434,00	43,3751
434,50	43,3526
435,00	43,3603
435,50	43,3714
436,00	43,3599
436,50	43,3549
437,00	43,3542
437,50	43,3517
438,00	43,3473
438,50	43,3422
439,00	43,3511
439,50	43,3514
440,00	43,3181
440,50	43,3403
441,00	43,3213
441,50	43,3269
442,00	43,3156
442,50	43,3121
443,00	43,3065
443,50	43,2945
444,00	43,2779
444,50	43,2597
445,00	43,2290
445,50	43,2219
446,00	43,2063
446,50	43,2137
447,00	43,2456
447,50	43,2362
448,00	43,2617
448,50	43,2765
449,00	43,3146
449,50	43,3303
450,00	43,3397
450,50	43,3524
451,00	43,3463
451,50	43,3112
452,00	43,3325
452,50	43,3235
453,00	43,3286
453,50	43,2990
454,00	43,2865
454,50	43,2961
455,00	43,2697
455,50	43,2577
456,00	43,2426
456,50	43,2284
457,00	43,2038
457,50	43,1813
458,00	43,1834
458,50	43,1851
459,00	43,1888
459,50	43,1970
460,00	43,2079
460,50	43,1996
461,00	43,1952
461,50	43,2022
462,00	43,1893
462,50	43,1709
463,00	43,1541
463,50	43,1159
464,00	43,1110
464,50	43,0950
465,00	43,0980
465,50	43,0796
466,00	43,0501
466,50	43,0398
467,00	43,0374
467,50	43,0297
468,00	43,0374
468,50	42,9991
469,00	42,9695
469,50	42,9756
470,00	42,9755
470,50	42,9685
471,00	42,9575
471,50	42,9514
472,00	42,9427
472,50	42,9446
473,00	42,9544
473,50	42,9682
474,00	42,9201
474,50	42,9166
475,00	42,9310
475,50	42,9195
476,00	42,9041
476,50	42,8894
477,00	42,8752
477,50	42,8677
478,00	42,8540
478,50	42,8685
479,00	42,8395
479,50	42,8187
480,00	42,8133
480,50	42,8134
481,00	42,8210
481,50	42,8011
482,00	42,8091
482,50	42,7979
483,00	42,8170
483,50	42,8189
484,00	42,8323
484,50	42,8355
485,00	42,8445
485,50	42,8460
486,00	42,8551
486,50	42,8533
487,00	42,8572
487,50	42,8356
488,00	42,8421
488,50	42,8417
489,00	42,8429
489,50	42,8287
490,00	42,8210
490,50	42,8114
491,00	42,8011
491,50	42,8068
492,00	42,8018
492,50	42,8035
493,00	42,7795
493,50	42,7699
494,00	42,7787
494,50	42,7781
495,00	42,7877
495,50	42,8037
496,00	42,7835
496,50	42,7862
497,00	42,8132
497,50	42,8342
498,00	42,8288
498,50	42,8128
499,00	42,8141
499,50	42,8218
500,00	42,8060
500,50	42,8114
501,00	42,8233
501,50	42,7867
502,00	42,7787
502,50	42,8134
503,00	42,8308
503,50	42,8339
504,00	42,8272
504,50	42,8272
505,00	42,8346
505,50	42,8078
506,00	42,8244
506,50	42,8153
507,00	42,8023
507,50	42,7839
508,00	42,7793
508,50	42,7673
509,00	42,7664
509,50	42,7462
510,00	42,7587
510,50	42,7467
511,00	42,7389
511,50	42,7175
512,00	42,7237
512,50	42,7087
513,00	42,6835
513,50	42,6820
514,00	42,7005
514,50	42,7067
515,00	42,7204
515,50	42,7000
516,00	42,7091
516,50	42,6923
517,00	42,6963
517,50	42,7073
518,00	42,7053
518,50	42,6980
519,00	42,6908
519,50	42,6560
520,00	42,6826
520,50	42,6783
521,00	42,7066
521,50	42,6992
522,00	42,6815
522,50	42,6873
523,00	42,6706
523,50	42,6600
524,00	42,6819
524,50	42,6881
525,00	42,6811
525,50	42,6494
526,00	42,6446
526,50	42,6449
527,00	42,6264
527,50	42,6165
528,00	42,6096
528,50	42,5588
529,00	42,4977
529,50	42,4575
530,00	42,4053
530,50	42,3703
531,00	42,3412
531,50	42,3005
532,00	42,2573
532,50	42,2163
533,00	42,2040
533,50	42,2120
534,00	42,2206
534,50	42,2486
535,00	42,2509
535,50	42,2502
536,00	42,2603
536,50	42,2656
537,00	42,2770
537,50	42,2820
538,00	42,2926
538,50	42,2731
539,00	42,2616
539,50	42,2508
540,00	42,2437
540,50	42,2202
541,00	42,2158
541,50	42,1880
542,00	42,1805
542,50	42,1824
543,00	42,2015
543,50	42,2020
544,00	42,2167
544,50	42,2220
545,00	42,2215
545,50	42,2634
546,00	42,2934
546,50	42,3003
547,00	42,2924
547,50	42,2812
548,00	42,2901
548,50	42,2725
549,00	42,2603
549,50	42,2590
550,00	42,2278
550,50	42,1965
551,00	42,1921
551,50	42,1621
552,00	42,1617
552,50	42,1416
553,00	42,1413
553,50	42,1660
554,00	42,1552
554,50	42,1515
555,00	42,1698
555,50	42,1643
556,00	42,1733
556,50	42,1569
557,00	42,1349
557,50	42,1168
558,00	42,0857
558,50	42,0791
559,00	42,0781
559,50	42,0630
560,00	42,0394
560,50	42,0170
561,00	42,0243
561,50	42,0266
562,00	42,0286
562,50	42,0237
563,00	42,0237
563,50	42,0190
564,00	42,0130
564,50	42,0138
565,00	41,9985
565,50	41,9898
566,00	41,9785
566,50	41,9678
567,00	41,9850
567,50	41,9777
568,00	41,9691
568,50	41,9595
569,00	41,9686
569,50	41,9955
570,00	41,9700
570,50	41,9914
571,00	41,9807
571,50	41,9619
572,00	41,9832
572,50	41,9483
573,00	41,9498
573,50	41,9433
574,00	41,9171
574,50	41,9337
575,00	41,9153
575,50	41,9288
576,00	41,9394
576,50	41,9226
577,00	41,9408
577,50	41,9449
578,00	41,9494
578,50	41,9580
579,00	41,9533
579,50	41,9438
580,00	41,9390
580,50	41,9168
581,00	41,9096
581,50	41,9363
582,00	41,9460
582,50	41,9579
583,00	41,9545
583,50	41,9800
584,00	42,0224
584,50	42,0267
585,00	42,0373
585,50	42,0515
586,00	42,0546
586,50	42,0431
587,00	42,0408
587,50	42,0822
588,00	42,0668
588,50	42,0582
589,00	42,0757
589,50	42,0835
590,00	42,0901
590,50	42,0898
591,00	42,1213
591,50	42,1329
592,00	42,1172
592,50	42,1262
593,00	42,1303
593,50	42,1303
594,00	42,1334
594,50	42,1336
595,00	42,1220
595,50	42,0915
596,00	42,0688
596,50	42,0799
597,00	42,0961
597,50	42,0798
598,00	42,0909
598,50	42,1082
599,00	42,1241
599,50	42,1464
600,00	42,1728
